Time	Channel A	Channel B
(us)	(mV)	(mV)

-1.00639299	-3.96740600	-1.47099200
-1.00139299	-3.96740600	-1.56254800
-0.99639299	-3.96740600	-1.56254800
-0.99139299	-3.96740600	-1.47099200
-0.98639299	-3.96740600	-1.91656200
-0.98139299	-3.96740600	-2.84432500
-0.97639299	-3.96740600	-3.28989500
-0.97139299	-3.96740600	-3.19834000
-0.96639299	-3.96740600	-3.17392500
-0.96139299	-3.96740600	-3.17392500
-0.95639299	-3.96740600	-3.17392500
-0.95139299	-3.96740600	-3.17392500
-0.94639299	-3.96740600	-3.17392500
-0.94139299	-3.96740600	-3.17392500
-0.93639299	-3.96740600	-3.17392500
-0.93139299	-3.96740600	-3.17392500
-0.92639299	-3.96740600	-3.17392500
-0.92139299	-3.96740600	-3.17392500
-0.91639299	-3.96740600	-3.17392500
-0.91139299	-3.96740600	-3.17392500
-0.90639299	-3.96740600	-3.19834000
-0.90139299	-3.96740600	-3.28989500
-0.89639299	-3.96740600	-2.81991000
-0.89139299	-3.96740600	-1.80059200
-0.88639299	-3.96740600	-1.82500700
-0.88139299	-3.96740600	-2.93588100
-0.87639299	-3.96740600	-2.93588100
-0.87139299	-3.96740600	-1.82500700
-0.86639299	-3.96740600	-1.80059200
-0.86139299	-3.96740600	-2.81991000
-0.85639299	-3.96740600	-3.28989500
-0.85139299	-3.96740600	-3.19834000
-0.84639299	-3.96740600	-3.17392500
-0.84139299	-3.96740600	-3.17392500
-0.83639299	-3.96740600	-3.17392500
-0.83139299	-3.96740600	-3.17392500
-0.82639299	-3.96740600	-3.17392500
-0.82139299	-3.96740600	-3.17392500
-0.81639299	-3.96740600	-3.17392500
-0.81139299	-3.96740600	-3.17392500
-0.80639299	-3.96740600	-3.17392500
-0.80139299	-3.96740600	-3.17392500
-0.79639299	-3.96740600	-3.17392500
-0.79139299	-3.96740600	-3.17392500
-0.78639299	-3.96740600	-3.17392500
-0.78139299	-3.96740600	-3.17392500
-0.77639299	-3.96740600	-3.19834000
-0.77139299	-3.96740600	-3.28989500
-0.76639299	-3.96740600	-2.81991000
-0.76139299	-3.96740600	-1.80059200
-0.75639299	-3.96740600	-1.80059200
-0.75139299	-3.96740600	-2.81991000
-0.74639299	-3.96740600	-3.28989500
-0.74139299	-3.96740600	-3.19834000
-0.73639299	-3.96740600	-3.17392500
-0.73139299	-3.96740600	-3.17392500
-0.72639299	-3.96740600	-3.17392500
-0.72139299	-3.96740600	-3.17392500
-0.71639299	-3.96740600	-3.17392500
-0.71139299	-3.96740600	-3.17392500
-0.70639299	-3.96740600	-3.19834000
-0.70139299	-3.96740600	-3.28989500
-0.69639299	-3.96740600	-2.81991000
-0.69139299	-3.96740600	-1.80059200
-0.68639299	-3.96740600	-1.82500700
-0.68139299	-3.96740600	-2.93588100
-0.67639299	-3.96740600	-2.96029500
-0.67139299	-3.96740600	-1.94097700
-0.66639299	-3.96740600	-1.47099200
-0.66139299	-3.96740600	-1.56254800
-0.65639299	-3.96740600	-1.58696200
-0.65139299	-3.96740600	-1.58696200
-0.64639299	-3.96740600	-1.58696200
-0.64139299	-3.96740600	-1.58696200
-0.63639299	-3.96740600	-1.58696200
-0.63139299	-3.96740600	-1.58696200
-0.62639299	-3.96740600	-1.58696200
-0.62139299	-3.96740600	-1.58696200
-0.61639299	-3.96740600	-1.56254800
-0.61139299	-3.96740600	-1.47099200
-0.60639299	-3.96740600	-1.94097700
-0.60139299	-3.96740600	-2.96029500
-0.59639299	-3.96740600	-2.96029500
-0.59139299	-3.96740600	-1.94097700
-0.58639299	-3.96740600	-1.44657700
-0.58139299	-3.96740600	-1.44657700
-0.57639299	-3.96740600	-1.89214800
-0.57139299	-3.96740600	-2.72835500
-0.56639299	-3.96740600	-3.61949500
-0.56139299	-3.96740600	-4.45570200
-0.55639299	-3.96740600	-4.87685800
-0.55139299	-3.96740600	-4.78530200
-0.54639299	-3.96740600	-4.76088700
-0.54139299	-3.96740600	-4.76088700
-0.53639299	-3.96740600	-4.78530200
-0.53139299	-3.96740600	-4.87685800
-0.52639299	-3.96740600	-4.40687300
-0.52139299	-3.96740600	-3.38755500
-0.51639299	-3.96740600	-3.38755500
-0.51139299	-3.96740600	-4.40687300
-0.50639299	-3.96740600	-4.90127200
-0.50139299	-3.96740600	-4.90127200
-0.49639299	-3.96740600	-4.40687300
-0.49139299	-3.96740600	-3.38755500
-0.48639299	-3.96740600	-3.38755500
-0.48139299	-3.96740600	-4.40687300
-0.47639299	-3.96740600	-4.90127200
-0.47139299	-3.96740600	-4.90127200
-0.46639299	-3.96740600	-4.45570200
-0.46139299	-3.96740600	-3.61949500
-0.45639299	-3.96740600	-2.70394000
-0.45139299	-3.96740600	-1.77617700
-0.44639299	-3.96740600	-1.77617700
-0.44139299	-3.96740600	-2.70394000
-0.43639299	-3.96740600	-3.64391000
-0.43139299	-3.96740600	-4.57167300
-0.42639299	-3.96740600	-4.54725700
-0.42139299	-3.96740600	-3.52794000
-0.41639299	-3.96740600	-3.05795500
-0.41139299	-3.96740600	-3.14951000
-0.40639299	-3.96740600	-3.14951000
-0.40139299	-3.96740600	-3.05795500
-0.39639299	-3.96740600	-3.52794000
-0.39139299	-3.96740600	-4.54725700
-0.38639299	-3.96740600	-4.52284300
-0.38139299	-3.96740600	-3.41196900
-0.37639299	-3.96740600	-3.41196900
-0.37139299	-3.96740600	-4.52284300
-0.36639299	-3.96740600	-4.54725700
-0.36139299	-3.96740600	-3.52794000
-0.35639299	-3.96740600	-3.08237000
-0.35139299	-3.96740600	-3.26548100
-0.34639299	-3.96740600	-2.81991000
-0.34139299	-3.96740600	-1.80059200
-0.33639299	-3.96740600	-1.80059200
-0.33139299	-3.96740600	-2.81991000
-0.32639299	-3.96740600	-3.28989500
-0.32139299	-3.96740600	-3.19834000
-0.31639299	-3.96740600	-3.19834000
-0.31139299	-3.96740600	-3.28989500
-0.30639299	-3.96740600	-2.81991000
-0.30139299	-3.96740600	-1.80059200
-0.29639299	-3.96740600	-1.82500700
-0.29139299	-3.96740600	-2.93588100
-0.28639299	-3.96740600	-2.96029500
-0.28139299	-3.96740600	-1.94097700
-0.27639299	-3.96740600	-1.47099200
-0.27139299	-3.96740600	-1.56254800
-0.26639299	-3.96740600	-1.56254800
-0.26139299	-3.96740600	-1.47099200
-0.25639299	-3.96740600	-1.91656200
-0.25139299	-3.96740600	-2.84432500
-0.24639299	-3.96740600	-3.31431000
-0.24139299	-3.96740600	-3.31431000
-0.23639299	-3.96740600	-2.84432500
-0.23139299	-3.96740600	-1.91656200
-0.22639299	-3.96740600	-1.47099200
-0.22139299	-3.96740600	-1.56254800
-0.21639299	-3.96740600	-1.58696200
-0.21139299	-3.96740600	-1.58696200
-0.20639299	-3.96740600	-1.58696200
-0.20139299	-3.96740600	-1.58696200
-0.19639299	-3.96740600	-1.56254800
-0.19139299	-3.96740600	-1.47099200
-0.18639299	-3.96740600	-1.94097700
-0.18139299	-3.96740600	-2.96029500
-0.17639299	-3.96740600	-2.93588100
-0.17139299	-3.96740600	-1.82500700
-0.16639299	-3.96740600	-1.80059200
-0.16139299	-3.96740600	-2.81991000
-0.15639299	-4.02844300	-3.28989500
-0.15139299	-4.25733200	-3.19834000
-0.14639299	-3.14340600	-3.17392500
-0.14139299	-0.82399970	-3.17392500
-0.13639299	0.28992580	-3.14951000
-0.13139299	0.06103702	-3.05795500
-0.12639299	-0.06103702	-3.50352500
-0.12139299	-0.28992580	-4.43128700
-0.11639299	0.70192570	-4.85244300
-0.11139299	2.56355500	-4.66933200
-0.10639299	5.79851600	-5.06607200
-0.10139299	9.72014400	-5.90228000
-0.09639299	14.02325000	-6.76900500
-0.09139299	17.71599000	-7.51365700
-0.08639299	21.95807000	-8.35596800
-0.08139300	25.65080000	-9.10061900
-0.07639300	29.83184000	-9.94293000
-0.07139300	33.29569000	-10.68758000
-0.06639300	38.65169000	-11.55431000
-0.06139300	44.66384000	-12.39052000
-0.05639300	49.95880000	-12.83609000
-0.05139300	53.19376000	-12.83609000
-0.04639300	58.48872000	-12.36610000
-0.04139300	64.50086000	-11.43834000
-0.03639300	69.85686000	-11.01718000
-0.03139300	73.33597000	-11.20029000
-0.02639300	77.51701000	-10.77914000
-0.02139300	81.20975000	-9.85137500
-0.01639300	85.45182000	-9.43021900
-0.01139300	89.14456000	-9.61333000
-0.00639300	93.32559000	-9.19217500
-0.00139300	96.78944000	-8.26441300
0.00360700	102.14540000	-7.81884200
0.00860700	108.15760000	-7.91039800
0.01360700	113.51360000	-7.93481200
0.01860700	116.97740000	-7.93481200
0.02360700	121.09740000	-7.95922800
0.02860700	124.56130000	-8.05078300
0.03360700	129.97830000	-7.58079800
0.03860700	136.21940000	-6.56148000
0.04360700	140.46140000	-6.56148000
0.04860700	141.62110000	-7.58079800
0.05360700	144.68820000	-8.05078300
0.05860700	148.60990000	-7.95922800
0.06360700	152.91300000	-7.93481200
0.06860700	156.60570000	-7.93481200
0.07360700	160.90880000	-7.93481200
0.07860700	164.83050000	-7.93481200
0.08360700	168.01960000	-7.91039800
0.08860700	169.62190000	-7.81884200
0.09360700	171.63610000	-8.28882700
0.09860700	173.23830000	-9.30814500
0.10360700	176.48850000	-9.28373100
0.10860700	180.63910000	-8.17285700
0.11360700	183.88930000	-8.14844100
0.11860700	185.49150000	-9.16776000
0.12360700	187.55150000	-9.63774600
0.12860700	189.41310000	-9.54619000
0.13360700	191.51890000	-9.52177400
0.13860700	193.38050000	-9.52177400
0.14360700	195.48630000	-9.49735900
0.14860700	197.34790000	-9.40580500
0.15360700	199.45370000	-9.85137500
0.15860700	201.31530000	-10.77914000
0.16360700	203.48210000	-11.22471000
0.16860700	205.57270000	-11.13315000
0.17360700	206.56450000	-11.10874000
0.17860700	206.10670000	-11.10874000
0.18360700	207.09860000	-11.10874000
0.18860700	209.18910000	-11.10874000
0.19360700	211.43220000	-11.10874000
0.19860700	213.52270000	-11.10874000
0.20360700	214.51460000	-11.10874000
0.20860700	214.05680000	-11.10874000
0.21360700	215.10970000	-11.13315000
0.21860700	217.42910000	-11.22471000
0.22360700	218.48200000	-10.77914000
0.22860700	218.02420000	-9.85137500
0.23360700	219.07710000	-9.40580500
0.23860700	221.39650000	-9.49735900
0.24360700	222.51040000	-9.52177400
0.24860700	222.28150000	-9.52177400
0.25360700	222.15950000	-9.52177400
0.25860700	221.93060000	-9.52177400
0.26360700	223.04450000	-9.52177400
0.26860700	225.36390000	-9.52177400
0.27360700	226.47780000	-9.52177400
0.27860700	226.24890000	-9.52177400
0.28360700	226.18790000	-9.54619000
0.28860700	226.18790000	-9.63774600
0.29360700	226.18790000	-9.16776000
0.29860700	226.18790000	-8.14844100
0.30360700	226.18790000	-8.14844100
0.30860700	226.18790000	-9.16776000
0.31360700	226.18790000	-9.66216000
0.31860700	226.18790000	-9.66216000
0.32360700	226.18790000	-9.19217500
0.32860700	226.18790000	-8.26441300
0.33360700	226.18790000	-7.81884200
0.33860700	226.18790000	-7.91039800
0.34360700	226.18790000	-7.93481200
0.34860700	226.18790000	-7.93481200
0.35360700	226.24890000	-7.93481200
0.35860700	226.47780000	-7.93481200
0.36360700	225.36390000	-7.95922800
0.36860700	223.04450000	-8.05078300
0.37360700	221.99160000	-7.58079800
0.37860700	222.44940000	-6.56148000
0.38360700	221.39650000	-6.58589400
0.38860700	219.07710000	-7.69676800
0.39360700	218.02420000	-7.74559700
0.39860700	218.48200000	-6.81783500
0.40360700	217.49010000	-5.87786500
0.40860700	215.39960000	-4.95010200
0.41360700	213.15650000	-4.99893200
0.41860700	211.06600000	-6.10980600
0.42360700	210.07410000	-6.13422100
0.42860700	210.53190000	-5.11490200
0.43360700	209.47900000	-4.64491700
0.43860700	207.15960000	-4.73647300
0.44360700	206.10670000	-4.76088700
0.44860700	206.56450000	-4.76088700
0.45360700	205.51160000	-4.73647300
0.45860700	203.19220000	-4.64491700
0.46360700	202.13930000	-5.11490200
0.46860700	202.59710000	-6.13422100
0.47360700	201.60530000	-6.10980600
0.47860700	199.51480000	-4.99893200
0.48360700	197.28690000	-4.97451700
0.48860700	195.19640000	-5.99383500
0.49360700	194.14350000	-6.48823500
0.49860700	194.37240000	-6.48823500
0.50360700	194.49440000	-5.99383500
0.50860700	194.72330000	-4.97451700
0.51360700	193.60940000	-4.97451700
0.51860700	191.29000000	-5.99383500
0.52360700	190.17610000	-6.46382000
0.52860700	190.40500000	-6.37226500
0.53360700	190.52700000	-6.34785000
0.53860700	190.75590000	-6.34785000
0.54360700	189.64200000	-6.34785000
0.54860700	187.32260000	-6.34785000
0.55360700	186.20870000	-6.37226500
0.55860700	186.43760000	-6.46382000
0.56360700	186.49860000	-6.01825000
0.56860700	186.49860000	-5.09048700
0.57360700	186.49860000	-4.66933200
0.57860700	186.49860000	-4.85244300
0.58360700	186.55960000	-4.40687300
0.58860700	186.78850000	-3.38755500
0.59360700	185.67460000	-3.36314000
0.59860700	183.35520000	-4.29090200
0.60360700	182.30230000	-5.25528700
0.60860700	182.76010000	-6.27460500
0.61360700	181.70720000	-5.78020600
0.61860700	179.38780000	-3.74156900
0.62360700	178.27390000	-3.27158400
0.62860700	178.50280000	-4.38245800
0.63360700	178.56380000	-4.87685800
0.63860700	178.56380000	-4.78530200
0.64360700	178.56380000	-4.76088700
0.64860700	178.56380000	-4.76088700
0.65360700	178.62480000	-4.78530200
0.65860700	178.85370000	-4.87685800
0.66360700	177.73980000	-4.40687300
0.66860700	175.42040000	-3.38755500
0.67360700	174.30650000	-3.41196900
0.67860700	174.53530000	-4.52284300
0.68360700	174.59640000	-4.54725700
0.68860700	174.59640000	-3.52794000
0.69360700	174.59640000	-3.05795500
0.69860700	174.59640000	-3.14951000
0.70360700	174.59640000	-3.17392500
0.70860700	174.59640000	-3.17392500
0.71360700	174.65740000	-3.14951000
0.71860700	174.88630000	-3.05795500
0.72360700	173.77240000	-3.52794000
0.72860700	171.45300000	-4.54725700
0.73360700	170.33910000	-4.54725700
0.73860700	170.56790000	-3.52794000
0.74360700	170.62900000	-3.08237000
0.74860700	170.62900000	-3.26548100
0.75360700	170.69000000	-2.84432500
0.75860700	170.91890000	-1.91656200
0.76360700	169.80500000	-1.47099200
0.76860700	167.48560000	-1.56254800
0.77360700	166.37160000	-1.58696200
0.77860700	166.60050000	-1.58696200
0.78360700	166.66160000	-1.58696200
0.78860700	166.66160000	-1.58696200
0.79360700	166.66160000	-1.58696200
0.79860700	166.66160000	-1.58696200
0.80360700	166.72260000	-1.56254800
0.80860700	166.95150000	-1.47099200
0.81360700	165.83760000	-1.91656200
0.81860700	163.51820000	-2.84432500
0.82360700	162.40430000	-3.28989500
0.82860700	162.63310000	-3.19834000
0.83360700	162.75520000	-3.19834000
0.83860700	162.98410000	-3.28989500
0.84360700	161.87020000	-2.81991000
0.84860700	159.55080000	-1.80059200
0.85360700	158.43680000	-1.80059200
0.85860700	158.66570000	-2.81991000
0.86360700	158.72680000	-3.28989500
0.86860700	158.72680000	-3.19834000
0.87360700	158.72680000	-3.17392500
0.87860700	158.72680000	-3.17392500
0.88360700	158.72680000	-3.17392500
0.88860700	158.72680000	-3.17392500
0.89360700	158.78780000	-3.17392500
0.89860700	159.01670000	-3.17392500
0.90360700	157.90280000	-3.19834000
0.90860700	155.58340000	-3.28989500
0.91360700	154.46940000	-2.81991000
0.91860700	154.69830000	-1.80059200
0.92360700	154.82040000	-1.82500700
0.92860700	155.04930000	-2.93588100
0.93360700	153.93530000	-2.93588100
0.93860700	151.61590000	-1.82500700
0.94360700	150.50200000	-1.80059200
0.94860700	150.73090000	-2.81991000
0.95360700	150.79190000	-3.28989500
0.95860700	150.79190000	-3.19834000
0.96360700	150.79190000	-3.17392500
0.96860700	150.79190000	-3.17392500
0.97360700	150.79190000	-3.14951000
0.97860700	150.79190000	-3.05795500
0.98360700	150.85300000	-3.52794000
0.98860700	151.08190000	-4.54725700
0.99360700	149.96790000	-4.54725700
0.99860700	147.64850000	-3.52794000
1.00360700	146.53460000	-3.05795500
1.00860700	146.76350000	-3.14951000
1.01360700	146.82450000	-3.17392500
1.01860700	146.82450000	-3.17392500
1.02360700	146.88560000	-3.17392500
1.02860700	147.11450000	-3.17392500
1.03360700	146.00050000	-3.17392500
1.03860700	143.68110000	-3.17392500
1.04360700	142.56720000	-3.17392500
1.04860700	142.79610000	-3.17392500
1.05360700	142.85710000	-3.14951000
1.05860700	142.85710000	-3.05795500
1.06360700	142.85710000	-3.52794000
1.06860700	142.85710000	-4.54725700
1.07360700	142.85710000	-4.52284300
1.07860700	142.85710000	-3.41196900
1.08360700	142.85710000	-3.41196900
1.08860700	142.85710000	-4.52284300
1.09360700	142.85710000	-4.52284300
1.09860700	142.85710000	-3.41196900
1.10360700	142.91820000	-3.38755500
1.10860700	143.14710000	-4.40687300
1.11360700	142.03310000	-4.87685800
1.11860700	139.69850000	-4.78530200
1.12360700	138.58450000	-4.78530200
1.12860700	138.81340000	-4.87685800
1.13360700	138.93550000	-4.40687300
1.13860700	139.16440000	-3.38755500
1.14360700	137.98940000	-3.38755500
1.14860700	135.44110000	-4.40687300
1.15360700	135.50220000	-4.90127200
1.15860700	138.27940000	-4.90127200
1.16360700	138.34040000	-4.43128700
1.16860700	135.79210000	-3.50352500
1.17360700	134.61710000	-3.05795500
1.17860700	134.84600000	-3.14951000
1.18360700	134.90710000	-3.17392500
1.18860700	134.90710000	-3.17392500
1.19360700	134.90710000	-3.17392500
1.19860700	134.90710000	-3.17392500
1.20360700	134.96810000	-3.17392500
1.20860700	135.19700000	-3.17392500
1.21360700	134.08310000	-3.19834000
1.21860700	131.76370000	-3.28989500
1.22360700	130.64970000	-2.81991000
1.22860700	130.87860000	-1.80059200
1.23360700	131.00070000	-1.77617700
1.23860700	131.22960000	-2.70394000
1.24360700	130.11560000	-3.61949500
1.24860700	127.79630000	-4.45570200
1.25360700	126.68230000	-4.87685800
1.25860700	126.91120000	-4.78530200
1.26360700	126.97230000	-4.76088700
1.26860700	126.97230000	-4.76088700
1.27360700	126.97230000	-4.73647300
1.27860700	126.97230000	-4.64491700
1.28360700	126.97230000	-5.11490200
1.28860700	126.97230000	-6.13422100
1.29360700	126.97230000	-6.13422100
1.29860700	126.97230000	-5.11490200
1.30360700	127.03330000	-4.66933200
1.30860700	127.26220000	-4.85244300
1.31360700	126.14820000	-4.40687300
1.31860700	123.82880000	-3.38755500
1.32360700	122.71490000	-3.41196900
1.32860700	122.94380000	-4.52284300
1.33360700	123.00480000	-4.52284300
1.33860700	123.00480000	-3.41196900
1.34360700	123.00480000	-3.41196900
1.34860700	123.00480000	-4.52284300
1.35360700	123.00480000	-4.54725700
1.35860700	123.00480000	-3.52794000
1.36360700	123.00480000	-3.05795500
1.36860700	123.00480000	-3.14951000
1.37360700	123.06590000	-3.17392500
1.37860700	123.29480000	-3.17392500
1.38360700	122.18080000	-3.17392500
1.38860700	119.86140000	-3.17392500
1.39360700	118.74750000	-3.19834000
1.39860700	118.97640000	-3.28989500
1.40360700	119.03740000	-2.81991000
1.40860700	119.03740000	-1.80059200
1.41360700	119.03740000	-1.80059200
1.41860700	119.03740000	-2.81991000
1.42360700	119.09850000	-3.31431000
1.42860700	119.32740000	-3.31431000
1.43360700	118.15240000	-2.81991000
1.43860700	115.60410000	-1.80059200
1.44360700	115.66510000	-1.80059200
1.44860700	118.44230000	-2.81991000
1.45360700	118.50340000	-3.28989500
1.45860700	115.95510000	-3.19834000
1.46360700	114.78010000	-3.19834000
1.46860700	115.00900000	-3.28989500
1.47360700	115.07000000	-2.81991000
1.47860700	115.07000000	-1.80059200
1.48360700	115.07000000	-1.80059200
1.48860700	115.07000000	-2.81991000
1.49360700	115.13110000	-3.28989500
1.49860700	115.36000000	-3.19834000
1.50360700	114.24600000	-3.17392500
1.50860700	111.92660000	-3.17392500
1.51360700	110.81270000	-3.17392500
1.51860700	111.04160000	-3.17392500
1.52360700	111.10260000	-3.17392500
1.52860700	111.10260000	-3.17392500
1.53360700	111.10260000	-3.17392500
1.53860700	111.10260000	-3.17392500
1.54360700	111.10260000	-3.17392500
1.54860700	111.10260000	-3.17392500
1.55360700	111.10260000	-3.17392500
1.55860700	111.10260000	-3.17392500
1.56360699	111.10260000	-3.19834000
1.56860699	111.10260000	-3.28989500
1.57360699	111.16370000	-2.81991000
1.57860699	111.39250000	-1.80059200
1.58360699	110.27860000	-1.80059200
1.58860699	107.95920000	-2.81991000
1.59360699	106.84530000	-3.31431000
1.59860699	107.07420000	-3.31431000
1.60360699	107.13520000	-2.81991000
1.60860699	107.13520000	-1.80059200
1.61360699	107.13520000	-1.82500700
1.61860699	107.13520000	-2.93588100
1.62360699	107.13520000	-2.96029500
1.62860699	107.13520000	-1.94097700
1.63360699	107.19630000	-1.47099200
1.63860699	107.42510000	-1.56254800
1.64360699	106.31120000	-1.56254800
1.64860699	103.99180000	-1.47099200
1.65360699	102.87790000	-1.91656200
1.65860699	103.10680000	-2.84432500
1.66360699	103.16780000	-3.28989500
1.66860699	103.16780000	-3.19834000
1.67360699	103.16780000	-3.17392500
1.67860699	103.16780000	-3.17392500
1.68360699	103.22890000	-3.17392500
1.68860699	103.45770000	-3.17392500
1.69360699	102.28280000	-3.17392500
1.69860699	99.73448000	-3.17392500
1.70360699	99.79552000	-3.17392500
1.70860699	102.57270000	-3.17392500
1.71360699	102.63370000	-3.17392500
1.71860699	100.08540000	-3.17392500
1.72360699	98.91048000	-3.17392500
1.72860699	99.13937000	-3.17392500
1.73360699	99.20041000	-3.17392500
1.73860699	99.20041000	-3.17392500
1.74360699	99.20041000	-3.17392500
1.74860699	99.20041000	-3.17392500
1.75360699	99.20041000	-3.19834000
1.75860699	99.20041000	-3.28989500
1.76360699	99.26145000	-2.84432500
1.76860699	99.49034000	-1.91656200
1.77360699	98.37641000	-1.44657700
1.77860699	96.05700000	-1.44657700
1.78360699	94.94308000	-1.91656200
1.78860699	95.17197000	-2.84432500
1.79360699	95.23300000	-3.26548100
1.79860699	95.23300000	-3.08237000
1.80360699	95.23300000	-3.52794000
1.80860699	95.23300000	-4.54725700
1.81360699	95.23300000	-4.52284300
1.81860699	95.23300000	-3.41196900
1.82360699	95.23300000	-3.38755500
1.82860699	95.23300000	-4.40687300
1.83360699	95.23300000	-4.87685800
1.83860699	95.23300000	-4.78530200
1.84360699	95.29404000	-4.76088700
1.84860699	95.52293000	-4.76088700
1.85360699	94.34796000	-4.78530200
1.85860699	91.79967000	-4.87685800
1.86360699	91.86070000	-4.45570200
1.86860699	94.63789000	-3.61949500
1.87360699	94.69893000	-2.70394000
1.87860699	92.15063000	-1.77617700
1.88360699	90.97568000	-1.80059200
1.88860699	91.20457000	-2.81991000
1.89360699	91.26560000	-3.28989500
1.89860699	91.26560000	-3.19834000
1.90360699	91.26560000	-3.17392500
1.90860699	91.26560000	-3.17392500
1.91360699	91.32664000	-3.17392500
1.91860699	91.55552000	-3.17392500
1.92360699	90.44160000	-3.17392500
1.92860699	88.12219000	-3.17392500
1.93360699	87.00826000	-3.17392500
1.93860699	87.23715000	-3.17392500
1.94360699	87.29819000	-3.17392500
1.94860699	87.29819000	-3.17392500
1.95360699	87.29819000	-3.17392500
1.95860699	87.29819000	-3.17392500
1.96360699	87.29819000	-3.19834000
1.96860699	87.29819000	-3.28989500
1.97360699	87.29819000	-2.81991000
1.97860699	87.29819000	-1.80059200
1.98360699	87.29819000	-1.80059200
1.98860699	87.29819000	-2.81991000
1.99360699	87.29819000	-3.28989500
1.99860699	87.29819000	-3.19834000
2.00360699	87.29819000	-3.17392500
2.00860699	87.29819000	-3.17392500
2.01360699	87.29819000	-3.17392500
2.01860699	87.29819000	-3.17392500
2.02360699	87.35923000	-3.17392500
2.02860699	87.58812000	-3.17392500
2.03360699	86.47419000	-3.17392500
2.03860699	84.15479000	-3.17392500
2.04360699	83.04086000	-3.17392500
2.04860699	83.26974000	-3.17392500
2.05360699	83.33078000	-3.17392500
2.05860699	83.33078000	-3.17392500
2.06360699	83.33078000	-3.17392500
2.06860699	83.33078000	-3.17392500
2.07360699	83.33078000	-3.14951000
2.07860699	83.33078000	-3.05795500
2.08360699	83.33078000	-3.52794000
2.08860699	83.33078000	-4.54725700
2.09360699	83.33078000	-4.54725700
2.09860699	83.33078000	-3.52794000
2.10360699	83.39182000	-3.05795500
2.10860699	83.62070000	-3.14951000
2.11360699	82.44575000	-3.17392500
2.11860699	79.89745000	-3.17392500
2.12360699	79.95850000	-3.19834000
2.12860699	82.73567000	-3.28989500
2.13360699	82.79671000	-2.79549500
2.13860699	80.24842000	-1.68462200
2.14360699	79.07346000	-2.15460700
2.14860699	79.30235000	-4.19324400
2.15360699	79.36338000	-4.71205800
2.15860699	79.36338000	-3.78429500
2.16360699	79.36338000	-2.37434000
2.16860699	79.36338000	-0.51881460
2.17360699	79.36338000	-0.09765923
2.17860699	79.36338000	-1.20853300
2.18360699	79.36338000	-1.70293300
2.18860699	79.36338000	-1.61137700
2.19360699	79.36338000	-1.58696200
2.19860699	79.36338000	-1.58696200
2.20360699	79.42442000	-1.58696200
2.20860699	79.65331000	-1.58696200
2.21360699	78.53938000	-1.58696200
2.21860699	76.21997000	-1.58696200
2.22360699	75.10605000	-1.56254800
2.22860699	75.33494000	-1.47099200
2.23360699	75.39597000	-1.94097700
2.23860699	75.39597000	-2.96029500
2.24360699	75.39597000	-2.93588100
2.24860699	75.39597000	-1.82500700
2.25360699	75.39597000	-1.82500700
2.25860699	75.39597000	-2.93588100
2.26360699	75.39597000	-2.93588100
2.26860699	75.39597000	-1.82500700
2.27360699	75.39597000	-1.80059200
2.27860699	75.39597000	-2.81991000
2.28360699	75.39597000	-3.31431000
2.28860699	75.39597000	-3.31431000
2.29360699	75.45701000	-2.81991000
2.29860699	75.68590000	-1.80059200
2.30360699	74.51093000	-1.80059200
2.30860699	71.96265000	-2.81991000
2.31360699	72.02368000	-3.26548100
2.31860699	74.80086000	-3.08237000
2.32360699	74.86190000	-3.52794000
2.32860699	72.31360000	-4.54725700
2.33360699	71.13864000	-4.52284300
2.33860699	71.36753000	-3.41196900
2.34360699	71.42857000	-3.41196900
2.34860699	71.42857000	-4.52284300
2.35360699	71.42857000	-4.52284300
2.35860699	71.42857000	-3.41196900
2.36360699	71.42857000	-3.38755500
2.36860699	71.42857000	-4.40687300
2.37360699	71.42857000	-4.90127200
2.37860699	71.42857000	-4.90127200
2.38360699	71.42857000	-4.43128700
2.38860699	71.42857000	-3.50352500
2.39360699	71.48961000	-3.05795500
2.39860699	71.71850000	-3.14951000
2.40360699	70.60457000	-3.14951000
2.40860699	68.26991000	-3.05795500
2.41360699	67.09494000	-3.50352500
2.41860699	67.09494000	-4.43128700
2.42360699	68.33094000	-4.87685800
2.42860699	70.89449000	-4.78530200
2.43360699	70.89449000	-4.76088700
2.43860699	68.33094000	-4.76088700
2.44360699	67.15598000	-4.78530200
2.44860699	67.38486000	-4.87685800
2.45360699	67.44590000	-4.43128700
2.45860699	67.44590000	-3.50352500
2.46360699	67.44590000	-3.03354000
2.46860699	67.44590000	-3.03354000
2.47360699	67.44590000	-3.52794000
2.47860699	67.44590000	-4.54725700
2.48360699	67.44590000	-4.54725700
2.48860699	67.44590000	-3.52794000
2.49360699	67.44590000	-3.05795500
2.49860699	67.44590000	-3.14951000
2.50360699	67.50694000	-3.17392500
2.50860699	67.73582000	-3.17392500
2.51360699	66.62190000	-3.17392500
2.51860699	64.30249000	-3.17392500
2.52360699	63.18857000	-3.17392500
2.52860699	63.41746000	-3.17392500
2.53360699	63.47850000	-3.17392500
2.53860699	63.47850000	-3.17392500
2.54360699	63.47850000	-3.19834000
2.54860699	63.47850000	-3.28989500
2.55360699	63.47850000	-2.79549500
2.55860699	63.47850000	-1.68462200
2.56360699	63.47850000	-2.17902200
2.56860699	63.47850000	-4.30921400
2.57360699	63.47850000	-4.28479900
2.57860699	63.47850000	-2.06305100
2.58360699	63.47850000	-2.03863600
2.58860699	63.47850000	-4.16882800
2.59360699	63.47850000	-4.63881300
2.59860699	63.47850000	-3.43638400
2.60360699	63.47850000	-3.41196900
2.60860699	63.47850000	-4.52284300
2.61360699	63.53953000	-4.54725700
2.61860699	63.76842000	-3.52794000
2.62360699	62.65450000	-3.05795500
2.62860699	60.33509000	-3.14951000
2.63360699	59.22116000	-3.17392500
2.63860699	59.45005000	-3.17392500
2.64360699	59.51109000	-3.17392500
2.64860699	59.51109000	-3.17392500
2.65360699	59.51109000	-3.17392500
2.65860699	59.51109000	-3.17392500
2.66360699	59.51109000	-3.17392500
2.66860699	59.51109000	-3.17392500
2.67360699	59.51109000	-3.17392500
2.67860699	59.51109000	-3.17392500
2.68360699	59.51109000	-3.17392500
2.68860699	59.51109000	-3.17392500
2.69360699	59.51109000	-3.17392500
2.69860699	59.51109000	-3.17392500
2.70360699	59.57213000	-3.14951000
2.70860699	59.80102000	-3.05795500
2.71360699	58.68709000	-3.52794000
2.71860699	56.36768000	-4.54725700
2.72360699	55.25376000	-4.52284300
2.72860699	55.48264000	-3.41196900
2.73360699	55.48264000	-3.38755500
2.73860699	55.25376000	-4.40687300
2.74360699	56.42872000	-4.87685800
2.74860699	58.97702000	-4.78530200
2.75360699	58.97702000	-4.76088700
2.75860699	56.42872000	-4.76088700
2.76360699	55.25376000	-4.76088700
2.76860699	55.48264000	-4.76088700
2.77360699	55.54368000	-4.78530200
2.77860699	55.54368000	-4.87685800
2.78360699	55.54368000	-4.43128700
2.78860699	55.54368000	-3.50352500
2.79360699	55.54368000	-3.05795500
2.79860699	55.54368000	-3.14951000
2.80360699	55.54368000	-3.17392500
2.80860699	55.54368000	-3.17392500
2.81360699	55.54368000	-3.17392500
2.81860699	55.54368000	-3.17392500
2.82360699	55.54368000	-3.17392500
2.82860699	55.54368000	-3.17392500
2.83360699	55.54368000	-3.17392500
2.83860699	55.54368000	-3.17392500
2.84360699	55.54368000	-3.19834000
2.84860699	55.54368000	-3.28989500
2.85360699	55.54368000	-2.81991000
2.85860699	55.54368000	-1.80059200
2.86360699	55.60472000	-1.82500700
2.86860699	55.83361000	-2.93588100
2.87360699	54.65865000	-2.93588100
2.87860699	52.11035000	-1.82500700
2.88360699	52.17139000	-1.80059200
2.88860699	54.94857000	-2.81991000
2.89360699	55.00961000	-3.28989500
2.89860699	52.46132000	-3.19834000
2.90360699	51.28635000	-3.17392500
2.90860699	51.51524000	-3.17392500
2.91360699	51.57627000	-3.17392500
2.91860699	51.57627000	-3.17392500
2.92360699	51.57627000	-3.14951000
2.92860699	51.57627000	-3.05795500
2.93360699	51.57627000	-3.50352500
2.93860699	51.57627000	-4.43128700
2.94360699	51.57627000	-4.87685800
2.94860699	51.57627000	-4.78530200
2.95360699	51.57627000	-4.76088700
2.95860699	51.57627000	-4.76088700
2.96360699	51.57627000	-4.76088700
2.96860699	51.57627000	-4.76088700
2.97360699	51.57627000	-4.78530200
2.97860699	51.57627000	-4.87685800
2.98360699	51.57627000	-4.43128700
2.98860699	51.57627000	-3.50352500
2.99360699	51.63731000	-3.05795500
2.99860699	51.86620000	-3.14951000
3.00360699	50.75228000	-3.17392500
3.00860699	48.43287000	-3.17392500
3.01360699	47.31895000	-3.17392500
3.01860699	47.54784000	-3.17392500
3.02360699	47.60887000	-3.17392500
3.02860699	47.60887000	-3.17392500
3.03360699	47.60887000	-3.17392500
3.03860699	47.60887000	-3.17392500
3.04360699	47.60887000	-3.19834000
3.04860699	47.60887000	-3.28989500
3.05360699	47.60887000	-2.84432500
3.05860699	47.60887000	-1.91656200
3.06360699	47.60887000	-1.47099200
3.06860699	47.60887000	-1.56254800
3.07360699	47.60887000	-1.58696200
3.07860699	47.60887000	-1.58696200
3.08360699	47.60887000	-1.58696200
3.08860699	47.60887000	-1.58696200
3.09360699	47.60887000	-1.58696200
3.09860699	47.60887000	-1.58696200
3.10360699	47.60887000	-1.58696200
3.10860699	47.60887000	-1.58696200
3.11360699	47.60887000	-1.58696200
3.11860699	47.60887000	-1.58696200
3.12360699	47.66991000	-1.56254800
3.12860699	47.89880000	-1.47099200
3.13360699	46.78487000	-1.94097700
3.13860699	44.46547000	-2.96029500
3.14360699	43.35154000	-2.96029500
3.14860699	43.58043000	-1.94097700
3.15360699	43.58043000	-1.44657700
3.15860699	43.35154000	-1.44657700
3.16360699	44.52650000	-1.91656200
3.16860699	47.07480000	-2.84432500
3.17360699	47.07480000	-3.28989500
3.17860699	44.52650000	-3.19834000
3.18360699	43.35154000	-3.17392500
3.18860699	43.58043000	-3.17392500
3.19360699	43.64147000	-3.19834000
3.19860699	43.64147000	-3.28989500
3.20360699	43.64147000	-2.84432500
3.20860698	43.64147000	-1.91656200
3.21360698	43.64147000	-1.47099200
3.21860698	43.64147000	-1.56254800
3.22360698	43.64147000	-1.58696200
3.22860698	43.64147000	-1.58696200
3.23360698	43.64147000	-1.56254800
3.23860698	43.64147000	-1.47099200
3.24360698	43.64147000	-1.91656200
3.24860698	43.64147000	-2.84432500
3.25360698	43.64147000	-3.28989500
3.25860698	43.64147000	-3.19834000
3.26360698	43.64147000	-3.14951000
3.26860698	43.64147000	-3.05795500
3.27360698	43.64147000	-3.52794000
3.27860698	43.64147000	-4.54725700
3.28360698	43.64147000	-4.54725700
3.28860698	43.64147000	-3.52794000
3.29360698	43.70250000	-3.08237000
3.29860698	43.93139000	-3.26548100
3.30360698	42.81747000	-2.81991000
3.30860698	40.49806000	-1.80059200
3.31360698	39.38414000	-1.80059200
3.31860698	39.61302000	-2.81991000
3.32360698	39.67406000	-3.28989500
3.32860698	39.67406000	-3.19834000
3.33360698	39.67406000	-3.14951000
3.33860698	39.67406000	-3.05795500
3.34360698	39.67406000	-3.52794000
3.34860698	39.67406000	-4.54725700
3.35360698	39.67406000	-4.54725700
3.35860698	39.67406000	-3.52794000
3.36360698	39.67406000	-3.03354000
3.36860698	39.67406000	-3.03354000
3.37360698	39.67406000	-3.52794000
3.37860698	39.67406000	-4.54725700
3.38360698	39.67406000	-4.54725700
3.38860698	39.67406000	-3.52794000
3.39360698	39.67406000	-3.05795500
3.39860698	39.67406000	-3.14951000
3.40360698	39.67406000	-3.17392500
3.40860698	39.67406000	-3.17392500
3.41360698	39.67406000	-3.17392500
3.41860698	39.67406000	-3.17392500
3.42360698	39.67406000	-3.17392500
3.42860698	39.67406000	-3.17392500
3.43360698	39.67406000	-3.17392500
3.43860698	39.67406000	-3.17392500
3.44360698	39.67406000	-3.17392500
3.44860698	39.67406000	-3.17392500
3.45360698	39.67406000	-3.17392500
3.45860698	39.67406000	-3.17392500
3.46360698	39.67406000	-3.14951000
3.46860698	39.67406000	-3.05795500
3.47360698	39.67406000	-3.50352500
3.47860698	39.67406000	-4.43128700
3.48360698	39.73510000	-4.90127200
3.48860698	39.96399000	-4.90127200
3.49360698	38.85006000	-4.40687300
3.49860698	36.53065000	-3.38755500
3.50360698	35.35569000	-3.38755500
3.50860698	35.35569000	-4.40687300
3.51360698	36.59169000	-4.87685800
3.51860698	39.13999000	-4.78530200
3.52360698	39.13999000	-4.76088700
3.52860698	36.59169000	-4.76088700
3.53360698	35.41673000	-4.76088700
3.53860698	35.64562000	-4.76088700
3.54360698	35.70665000	-4.76088700
3.54860698	35.70665000	-4.76088700
3.55360698	35.70665000	-4.76088700
3.55860698	35.70665000	-4.76088700
3.56360698	35.70665000	-4.78530200
3.56860698	35.70665000	-4.87685800
3.57360698	35.70665000	-4.43128700
3.57860698	35.70665000	-3.50352500
3.58360698	35.70665000	-3.05795500
3.58860698	35.70665000	-3.14951000
3.59360698	35.70665000	-3.17392500
3.59860698	35.70665000	-3.17392500
3.60360698	35.70665000	-3.17392500
3.60860698	35.70665000	-3.17392500
3.61360698	35.70665000	-3.17392500
3.61860698	35.70665000	-3.17392500
3.62360698	35.70665000	-3.19834000
3.62860698	35.70665000	-3.28989500
3.63360698	35.70665000	-2.84432500
3.63860698	35.70665000	-1.91656200
3.64360698	35.70665000	-1.44657700
3.64860698	35.70665000	-1.44657700
3.65360698	35.70665000	-1.91656200
3.65860698	35.70665000	-2.84432500
3.66360698	35.76769000	-3.28989500
3.66860698	35.99658000	-3.19834000
3.67360698	34.82162000	-3.17392500
3.67860698	32.27332000	-3.17392500
3.68360698	32.33436000	-3.17392500
3.68860698	35.11155000	-3.17392500
3.69360698	35.17258000	-3.17392500
3.69860698	32.62428000	-3.17392500
3.70360698	31.44932000	-3.17392500
3.70860698	31.67821000	-3.17392500
3.71360698	31.73925000	-3.17392500
3.71860698	31.73925000	-3.17392500
3.72360698	31.73925000	-3.17392500
3.72860698	31.73925000	-3.17392500
3.73360698	31.73925000	-3.17392500
3.73860698	31.73925000	-3.17392500
3.74360698	31.73925000	-3.14951000
3.74860698	31.73925000	-3.05795500
3.75360698	31.73925000	-3.50352500
3.75860698	31.73925000	-4.43128700
3.76360698	31.73925000	-4.87685800
3.76860698	31.73925000	-4.78530200
3.77360698	31.73925000	-4.76088700
3.77860698	31.73925000	-4.76088700
3.78360698	31.73925000	-4.76088700
3.78860698	31.73925000	-4.76088700
3.79360698	31.73925000	-4.73647300
3.79860698	31.73925000	-4.64491700
3.80360698	31.73925000	-5.11490200
3.80860698	31.73925000	-6.13422100
3.81360698	31.73925000	-6.13422100
3.81860698	31.73925000	-5.11490200
3.82360698	31.73925000	-4.66933200
3.82860698	31.73925000	-4.85244300
3.83360698	31.73925000	-4.43128700
3.83860698	31.73925000	-3.50352500
3.84360698	31.73925000	-3.05795500
3.84860698	31.73925000	-3.14951000
3.85360698	31.73925000	-3.17392500
3.85860698	31.73925000	-3.17392500
3.86360698	31.73925000	-3.17392500
3.86860698	31.73925000	-3.17392500
3.87360698	31.73925000	-3.19834000
3.87860698	31.73925000	-3.28989500
3.88360698	31.73925000	-2.81991000
3.88860698	31.73925000	-1.80059200
3.89360698	31.80028000	-1.82500700
3.89860698	32.02917000	-2.93588100
3.90360698	30.85421000	-2.93588100
3.90860698	28.30592000	-1.82500700
3.91360698	28.36695000	-1.80059200
3.91860698	31.14414000	-2.81991000
3.92360698	31.20517000	-3.28989500
3.92860698	28.65688000	-3.19834000
3.93360698	27.48192000	-3.17392500
3.93860698	27.71080000	-3.17392500
3.94360698	27.77184000	-3.17392500
3.94860698	27.77184000	-3.17392500
3.95360698	27.77184000	-3.17392500
3.95860698	27.77184000	-3.17392500
3.96360698	27.77184000	-3.19834000
3.96860698	27.77184000	-3.28989500
3.97360698	27.77184000	-2.84432500
3.97860698	27.77184000	-1.91656200
3.98360698	27.77184000	-1.44657700
3.98860698	27.77184000	-1.44657700
3.99360698	27.77184000	-1.94097700
3.99860698	27.77184000	-2.96029500
4.00360698	27.77184000	-2.96029500
4.00860698	27.77184000	-1.94097700
4.01360698	27.77184000	-1.44657700
4.01860698	27.77184000	-1.44657700
4.02360698	27.77184000	-1.91656200
4.02860698	27.77184000	-2.84432500
4.03360698	27.77184000	-3.28989500
4.03860698	27.77184000	-3.19834000
4.04360698	27.77184000	-3.14951000
4.04860698	27.77184000	-3.05795500
4.05360698	27.77184000	-3.50352500
4.05860698	27.77184000	-4.43128700
4.06360698	27.77184000	-4.90127200
4.06860698	27.77184000	-4.90127200
4.07360698	27.77184000	-4.38245800
4.07860698	27.77184000	-3.27158400
4.08360698	27.77184000	-3.71715500
4.08860698	27.77184000	-5.66423500
4.09360698	27.77184000	-6.57979000
4.09860698	27.77184000	-6.39667900
4.10360698	27.77184000	-6.34785000
4.10860698	27.77184000	-6.34785000
4.11360698	27.77184000	-6.37226500
4.11860698	27.77184000	-6.46382000
4.12360698	27.77184000	-6.01825000
4.12860698	27.77184000	-5.09048700
4.13360698	27.83288000	-4.66933200
4.13860698	28.06177000	-4.85244300
4.14360698	26.94784000	-4.40687300
4.14860698	24.62844000	-3.38755500
4.15360698	23.45347000	-3.38755500
4.15860698	23.45347000	-4.40687300
4.16360698	24.62844000	-4.87685800
4.16860698	26.94784000	-4.78530200
4.17360698	28.12280000	-4.78530200
4.17860698	28.12280000	-4.87685800
4.18360698	26.94784000	-4.43128700
4.18860698	24.62844000	-3.50352500
4.19360698	23.51451000	-3.05795500
4.19860698	23.74340000	-3.14951000
4.20360698	23.80444000	-3.17392500
4.20860698	23.80444000	-3.17392500
4.21360698	23.80444000	-3.19834000
4.21860698	23.80444000	-3.28989500
4.22360698	23.80444000	-2.81991000
4.22860698	23.80444000	-1.80059200
4.23360698	23.80444000	-1.82500700
4.23860698	23.80444000	-2.93588100
4.24360698	23.80444000	-2.96029500
4.24860698	23.80444000	-1.94097700
4.25360698	23.80444000	-1.47099200
4.25860698	23.80444000	-1.56254800
4.26360698	23.80444000	-1.58696200
4.26860698	23.80444000	-1.58696200
4.27360698	23.80444000	-1.58696200
4.27860698	23.80444000	-1.58696200
4.28360698	23.80444000	-1.56254800
4.28860698	23.80444000	-1.47099200
4.29360698	23.80444000	-1.91656200
4.29860698	23.80444000	-2.84432500
4.30360698	23.80444000	-3.28989500
4.30860698	23.80444000	-3.19834000
4.31360698	23.80444000	-3.17392500
4.31860698	23.80444000	-3.17392500
4.32360698	23.80444000	-3.17392500
4.32860698	23.80444000	-3.17392500
4.33360698	23.80444000	-3.17392500
4.33860698	23.80444000	-3.17392500
4.34360698	23.80444000	-3.14951000
4.34860698	23.80444000	-3.05795500
4.35360698	23.80444000	-3.50352500
4.35860698	23.80444000	-4.43128700
4.36360698	23.80444000	-4.87685800
4.36860698	23.80444000	-4.78530200
4.37360698	23.80444000	-4.76088700
4.37860698	23.80444000	-4.76088700
4.38360698	23.80444000	-4.76088700
4.38860698	23.80444000	-4.76088700
4.39360698	23.80444000	-4.76088700
4.39860698	23.80444000	-4.76088700
4.40360698	23.80444000	-4.78530200
4.40860698	23.80444000	-4.87685800
4.41360698	23.80444000	-4.43128700
4.41860698	23.80444000	-3.50352500
4.42360698	23.80444000	-3.08237000
4.42860698	23.80444000	-3.26548100
4.43360698	23.80444000	-2.81991000
4.43860698	23.80444000	-1.80059200
4.44360698	23.80444000	-1.82500700
4.44860698	23.80444000	-2.93588100
4.45360698	23.86547000	-2.93588100
4.45860698	24.09436000	-1.82500700
4.46360698	22.91940000	-1.80059200
4.46860698	20.37111000	-2.81991000
4.47360698	20.43214000	-3.28989500
4.47860698	23.20932000	-3.19834000
4.48360698	23.20932000	-3.17392500
4.48860698	20.43214000	-3.17392500
4.49360698	20.37111000	-3.17392500
4.49860698	22.91940000	-3.17392500
4.50360698	24.15540000	-3.17392500
4.50860698	24.15540000	-3.17392500
4.51360698	22.91940000	-3.17392500
4.51860698	20.37111000	-3.17392500
4.52360698	20.43214000	-3.17392500
4.52860698	23.20932000	-3.17392500
4.53360698	23.27036000	-3.19834000
4.53860698	20.72207000	-3.28989500
4.54360698	19.54710000	-2.81991000
4.54860698	19.77599000	-1.80059200
4.55360698	19.83703000	-1.82500700
4.55860698	19.83703000	-2.93588100
4.56360698	19.83703000	-2.93588100
4.56860698	19.83703000	-1.82500700
4.57360698	19.83703000	-1.80059200
4.57860698	19.83703000	-2.81991000
4.58360698	19.83703000	-3.28989500
4.58860698	19.83703000	-3.19834000
4.59360698	19.83703000	-3.19834000
4.59860698	19.83703000	-3.28989500
4.60360698	19.83703000	-2.81991000
4.60860698	19.83703000	-1.80059200
4.61360698	19.83703000	-1.80059200
4.61860698	19.83703000	-2.81991000
4.62360698	19.83703000	-3.28989500
4.62860698	19.83703000	-3.19834000
4.63360698	19.83703000	-3.19834000
4.63860698	19.83703000	-3.28989500
4.64360698	19.83703000	-2.81991000
4.64860698	19.83703000	-1.80059200
4.65360698	19.83703000	-1.82500700
4.65860698	19.83703000	-2.93588100
4.66360698	19.83703000	-2.93588100
4.66860698	19.83703000	-1.82500700
4.67360698	19.83703000	-1.77617700
4.67860698	19.83703000	-2.70394000
4.68360698	19.83703000	-3.64391000
4.68860698	19.83703000	-4.57167300
4.69360698	19.83703000	-4.54725700
4.69860698	19.83703000	-3.52794000
4.70360698	19.83703000	-3.03354000
4.70860698	19.83703000	-3.03354000
4.71360698	19.83703000	-3.52794000
4.71860698	19.83703000	-4.54725700
4.72360698	19.89807000	-4.52284300
4.72860698	20.12696000	-3.41196900
4.73360698	19.01303000	-3.41196900
4.73860698	16.69362000	-4.52284300
4.74360698	15.51866000	-4.54725700
4.74860698	15.51866000	-3.52794000
4.75360698	16.75466000	-3.03354000
4.75860698	19.30296000	-3.03354000
4.76360698	19.24192000	-3.50352500
4.76860698	16.46474000	-4.43128700
4.77360698	16.40370000	-4.90127200
4.77860698	18.95199000	-4.90127200
4.78360698	20.12696000	-4.40687300
4.78860698	19.89807000	-3.38755500
4.79360698	19.83703000	-3.41196900
4.79860698	19.83703000	-4.52284300
4.80360698	19.89807000	-4.52284300
4.80860698	20.12696000	-3.41196900
4.81360698	19.01303000	-3.38755500
4.81860698	16.69362000	-4.40687300
4.82360698	15.57970000	-4.90127200
4.82860698	15.80859000	-4.90127200
4.83360698	15.86962000	-4.43128700
4.83860698	15.86962000	-3.50352500
4.84360698	15.86962000	-3.05795500
4.84860698	15.86962000	-3.14951000
4.85360697	15.86962000	-3.19834000
4.85860697	15.86962000	-3.28989500
4.86360697	15.80859000	-2.81991000
4.86860697	15.57970000	-1.80059200
4.87360697	16.75466000	-1.80059200
4.87860697	19.30296000	-2.81991000
4.88360697	19.30296000	-3.28989500
4.88860697	16.75466000	-3.19834000
4.89360697	15.57970000	-3.14951000
4.89860697	15.80859000	-3.05795500
4.90360697	15.86962000	-3.50352500
4.90860697	15.86962000	-4.43128700
4.91360697	15.86962000	-4.87685800
4.91860697	15.86962000	-4.78530200
4.92360697	15.86962000	-4.76088700
4.92860697	15.86962000	-4.76088700
4.93360697	15.86962000	-4.76088700
4.93860697	15.86962000	-4.76088700
4.94360697	15.86962000	-4.76088700
4.94860697	15.86962000	-4.76088700
4.95360697	15.86962000	-4.76088700
4.95860697	15.86962000	-4.76088700
4.96360697	15.86962000	-4.76088700
4.96860697	15.86962000	-4.76088700
4.97360697	15.86962000	-4.76088700
4.97860697	15.86962000	-4.76088700
4.98360697	15.86962000	-4.78530200
4.98860697	15.86962000	-4.87685800
4.99360697	15.86962000	-4.43128700
4.99860697	15.86962000	-3.50352500
5.00360697	15.86962000	-3.05795500
5.00860697	15.86962000	-3.14951000
5.01360697	15.86962000	-3.17392500
5.01860697	15.86962000	-3.17392500
5.02360697	15.86962000	-3.17392500
5.02860697	15.86962000	-3.17392500
5.03360697	15.86962000	-3.19834000
5.03860697	15.86962000	-3.28989500
5.04360697	15.86962000	-2.84432500
5.04860697	15.86962000	-1.91656200
5.05360697	15.86962000	-1.47099200
5.05860697	15.86962000	-1.56254800
5.06360697	15.86962000	-1.61137700
5.06860697	15.86962000	-1.70293300
5.07360697	15.86962000	-1.23294800
5.07860697	15.86962000	-0.21362960
5.08360697	15.86962000	-0.21362960
5.08860697	15.86962000	-1.23294800
5.09360697	15.86962000	-1.70293300
5.09860697	15.86962000	-1.61137700
5.10360697	15.86962000	-1.58696200
5.10860697	15.86962000	-1.58696200
5.11360697	15.86962000	-1.61137700
5.11860697	15.86962000	-1.70293300
5.12360697	15.86962000	-1.20853300
5.12860697	15.86962000	-0.09765923
5.13360697	15.86962000	-0.54322950
5.13860697	15.86962000	-2.49031000
5.14360697	15.86962000	-3.40586500
5.14860697	15.86962000	-3.22275400
5.15360697	15.86962000	-3.19834000
5.15860697	15.86962000	-3.28989500
5.16360697	15.86962000	-2.81991000
5.16860697	15.86962000	-1.80059200
5.17360697	15.86962000	-1.80059200
5.17860697	15.86962000	-2.81991000
5.18360697	15.86962000	-3.28989500
5.18860697	15.86962000	-3.19834000
5.19360697	15.86962000	-3.17392500
5.19860697	15.86962000	-3.17392500
5.20360697	15.86962000	-3.14951000
5.20860697	15.86962000	-3.05795500
5.21360697	15.86962000	-3.50352500
5.21860697	15.86962000	-4.43128700
5.22360697	15.93066000	-4.87685800
5.22860697	16.15955000	-4.78530200
5.23360697	14.98459000	-4.76088700
5.23860697	12.43629000	-4.76088700
5.24360697	12.43629000	-4.76088700
5.24860697	14.98459000	-4.76088700
5.25360697	16.15955000	-4.76088700
5.25860697	15.93066000	-4.76088700
5.26360697	15.93066000	-4.76088700
5.26860697	16.15955000	-4.76088700
5.27360697	14.98459000	-4.76088700
5.27860697	12.43629000	-4.76088700
5.28360697	12.49733000	-4.76088700
5.28860697	15.27451000	-4.76088700
5.29360697	15.27451000	-4.76088700
5.29860697	12.49733000	-4.76088700
5.30360697	12.49733000	-4.78530200
5.30860697	15.27451000	-4.87685800
5.31360697	15.33555000	-4.43128700
5.31860697	12.78725000	-3.50352500
5.32360697	11.61229000	-3.08237000
5.32860697	11.84118000	-3.26548100
5.33360697	11.90222000	-2.81991000
5.33860697	11.90222000	-1.80059200
5.34360697	11.90222000	-1.77617700
5.34860697	11.90222000	-2.70394000
5.35360697	11.90222000	-3.64391000
5.35860697	11.90222000	-4.57167300
5.36360697	11.90222000	-4.54725700
5.36860697	11.90222000	-3.52794000
5.37360697	11.84118000	-3.08237000
5.37860697	11.61229000	-3.26548100
5.38360697	12.78725000	-2.81991000
5.38860697	15.33555000	-1.80059200
5.39360697	15.33555000	-1.80059200
5.39860697	12.78725000	-2.81991000
5.40360697	11.61229000	-3.28989500
5.40860697	11.84118000	-3.19834000
5.41360697	11.90222000	-3.17392500
5.41860697	11.90222000	-3.17392500
5.42360697	11.90222000	-3.17392500
5.42860697	11.90222000	-3.17392500
5.43360697	11.90222000	-3.17392500
5.43860697	11.90222000	-3.17392500
5.44360697	11.90222000	-3.17392500
5.44860697	11.90222000	-3.17392500
5.45360697	11.90222000	-3.17392500
5.45860697	11.90222000	-3.17392500
5.46360697	11.90222000	-3.17392500
5.46860697	11.90222000	-3.17392500
5.47360697	11.90222000	-3.17392500
5.47860697	11.90222000	-3.17392500
5.48360697	11.90222000	-3.17392500
5.48860697	11.90222000	-3.17392500
5.49360697	11.90222000	-3.17392500
5.49860697	11.90222000	-3.17392500
5.50360697	11.90222000	-3.14951000
5.50860697	11.90222000	-3.05795500
5.51360697	11.90222000	-3.50352500
5.51860697	11.90222000	-4.43128700
5.52360697	11.90222000	-4.87685800
5.52860697	11.90222000	-4.78530200
5.53360697	11.90222000	-4.76088700
5.53860697	11.90222000	-4.76088700
5.54360697	11.90222000	-4.76088700
5.54860697	11.90222000	-4.76088700
5.55360697	11.90222000	-4.76088700
5.55860697	11.90222000	-4.76088700
5.56360697	11.90222000	-4.76088700
5.56860697	11.90222000	-4.76088700
5.57360697	11.90222000	-4.76088700
5.57860697	11.90222000	-4.76088700
5.58360697	11.90222000	-4.78530200
5.58860697	11.90222000	-4.87685800
5.59360697	11.90222000	-4.40687300
5.59860697	11.90222000	-3.38755500
5.60360697	11.90222000	-3.41196900
5.60860697	11.90222000	-4.52284300
5.61360697	11.90222000	-4.57167300
5.61860697	11.90222000	-3.64391000
5.62360697	11.90222000	-2.72835500
5.62860697	11.90222000	-1.89214800
5.63360697	11.90222000	-1.44657700
5.63860697	11.90222000	-1.44657700
5.64360697	11.96325000	-1.94097700
5.64860697	12.19214000	-2.96029500
5.65360697	11.01718000	-2.96029500
5.65860697	8.46888600	-1.94097700
5.66360697	8.46888600	-1.42216300
5.66860697	11.01718000	-1.33060700
5.67360697	12.19214000	-2.29499200
5.67860697	11.96325000	-4.33362800
5.68360697	11.90222000	-4.35804300
5.68860697	11.90222000	-2.41096200
5.69360697	11.90222000	-1.00100700
5.69860697	11.90222000	-0.16479990
5.70360697	11.90222000	-0.21362960
5.70860697	11.90222000	-1.23294800
5.71360697	11.90222000	-1.70293300
5.71860697	11.90222000	-1.61137700
5.72360697	11.90222000	-1.58696200
5.72860697	11.90222000	-1.58696200
5.73360697	11.90222000	-1.58696200
5.73860697	11.90222000	-1.58696200
5.74360697	11.90222000	-1.56254800
5.74860697	11.90222000	-1.47099200
5.75360697	11.96325000	-1.91656200
5.75860697	12.19214000	-2.84432500
5.76360697	11.07822000	-3.28989500
5.76860697	8.75881200	-3.19834000
5.77360697	7.58384900	-3.17392500
5.77860697	7.58384900	-3.17392500
5.78360697	8.81984900	-3.17392500
5.78860697	11.36814000	-3.17392500
5.79360697	11.36814000	-3.14951000
5.79860697	8.81984900	-3.05795500
5.80360697	7.58384900	-3.52794000
5.80860697	7.58384900	-4.54725700
5.81360697	8.81984900	-4.54725700
5.81860697	11.36814000	-3.52794000
5.82360697	11.36814000	-3.05795500
5.82860697	8.81984900	-3.14951000
5.83360697	7.64488600	-3.17392500
5.83860697	7.87377500	-3.17392500
5.84360697	7.93481200	-3.17392500
5.84860697	7.93481200	-3.17392500
5.85360697	7.93481200	-3.19834000
5.85860697	7.93481200	-3.28989500
5.86360697	7.93481200	-2.81991000
5.86860697	7.93481200	-1.80059200
5.87360697	7.93481200	-1.80059200
5.87860697	7.93481200	-2.81991000
5.88360697	7.93481200	-3.28989500
5.88860697	7.93481200	-3.19834000
5.89360697	7.87377500	-3.19834000
5.89860697	7.64488600	-3.28989500
5.90360697	8.81984900	-2.81991000
5.90860697	11.36814000	-1.80059200
5.91360697	11.36814000	-1.80059200
5.91860697	8.81984900	-2.81991000
5.92360697	7.64488600	-3.33872500
5.92860697	7.87377500	-3.43028000
5.93360697	7.93481200	-2.49031000
5.93860697	7.93481200	-0.54322950
5.94360697	7.93481200	-0.07324442
5.94860697	7.93481200	-1.09256300
5.95360697	7.93481200	-2.05694700
5.95860697	7.93481200	-2.98471000
5.96360697	7.93481200	-2.93588100
5.96860697	7.93481200	-1.82500700
5.97360697	7.93481200	-1.80059200
5.97860697	7.93481200	-2.81991000
5.98360697	7.93481200	-3.26548100
5.98860697	7.93481200	-3.08237000
5.99360697	7.93481200	-3.50352500
5.99860697	7.93481200	-4.43128700
6.00360697	7.93481200	-4.90127200
6.00860697	7.93481200	-4.90127200
6.01360697	7.93481200	-4.43128700
6.01860697	7.93481200	-3.50352500
6.02360697	7.93481200	-3.03354000
6.02860697	7.93481200	-3.03354000
6.03360697	7.93481200	-3.52794000
6.03860697	7.93481200	-4.54725700
6.04360697	7.93481200	-4.54725700
6.04860697	7.93481200	-3.52794000
6.05360697	7.93481200	-3.05795500
6.05860697	7.93481200	-3.14951000
6.06360697	7.93481200	-3.17392500
6.06860697	7.93481200	-3.17392500
6.07360697	7.93481200	-3.14951000
6.07860697	7.93481200	-3.05795500
6.08360697	7.93481200	-3.52794000
6.08860697	7.93481200	-4.54725700
6.09360697	7.93481200	-4.54725700
6.09860697	7.93481200	-3.52794000
6.10360697	7.93481200	-3.03354000
6.10860697	7.93481200	-3.03354000
6.11360697	7.93481200	-3.52794000
6.11860697	7.93481200	-4.54725700
6.12360697	7.93481200	-4.54725700
6.12860697	7.93481200	-3.52794000
6.13360697	7.93481200	-3.05795500
6.13860697	7.93481200	-3.14951000
6.14360697	7.93481200	-3.14951000
6.14860697	7.93481200	-3.05795500
6.15360697	7.93481200	-3.50352500
6.15860697	7.93481200	-4.43128700
6.16360697	7.93481200	-4.90127200
6.16860697	7.93481200	-4.90127200
6.17360697	7.93481200	-4.40687300
6.17860697	7.93481200	-3.38755500
6.18360697	7.93481200	-3.38755500
6.18860697	7.93481200	-4.40687300
6.19360697	7.93481200	-4.87685800
6.19860697	7.93481200	-4.78530200
6.20360697	7.93481200	-4.78530200
6.20860697	7.93481200	-4.87685800
6.21360697	7.93481200	-4.43128700
6.21860697	7.93481200	-3.50352500
6.22360697	7.93481200	-3.05795500
6.22860697	7.93481200	-3.14951000
6.23360697	7.93481200	-3.17392500
6.23860697	7.93481200	-3.17392500
6.24360697	7.93481200	-3.19834000
6.24860697	7.93481200	-3.28989500
6.25360697	7.93481200	-2.86874000
6.25860697	7.93481200	-2.03253300
6.26360697	7.93481200	-1.16580700
6.26860697	7.93481200	-0.42115540
6.27360697	7.93481200	0.44557020
6.27860697	7.93481200	1.28177700
6.28360697	7.93481200	1.65410300
6.28860697	7.93481200	1.37943700
6.29360697	7.93481200	2.15460700
6.29860697	7.93481200	3.63170300
6.30360697	7.93481200	6.19525800
6.30860697	7.93481200	9.24710800
6.31360697	7.93481200	13.08634000
6.31860697	7.93481200	16.78518000
6.32360697	7.99584900	21.44841000
6.32860697	8.22473800	25.88580000
6.33360697	7.04977500	31.39744000
6.33860697	4.50148000	36.57338000
6.34360697	4.50148000	42.95175000
6.34860697	7.04977500	48.96389000
6.35360697	8.22473800	55.76952000
6.35860697	7.99584900	61.68401000
6.36360697	7.99584900	68.46522000
6.36860697	8.22473800	74.38582000
6.37360697	7.04977500	81.19144000
6.37860697	4.50148000	87.20359000
6.38360697	4.56251700	93.60637000
6.38860697	7.33970100	98.87386000
6.39360697	7.33970100	103.95830000
6.39860697	4.56251700	107.56550000
6.40360697	4.50148000	111.38030000
6.40860697	7.04977500	114.43220000
6.41360697	8.22473800	116.95300000
6.41860697	7.99584900	118.24700000
6.42360697	7.93481200	119.91940000
6.42860697	7.93481200	121.48810000
6.43360697	7.99584900	122.78210000
6.43860697	8.22473800	123.52670000
6.44360697	7.11081200	123.94790000
6.44860697	4.79140600	123.94790000
6.45360697	3.61644300	123.52670000
6.45860697	3.61644300	122.78210000
6.46360697	4.85244300	121.48810000
6.46860697	7.40073800	119.91940000
6.47360697	7.40073800	118.19820000
6.47860697	4.85244300	116.72110000
6.48360697	3.67748000	115.04870000
6.48860697	3.90636900	113.65700000
6.49360697	3.96740600	111.53900000
6.49860696	3.96740600	109.22570000
6.50360696	3.96740600	106.66220000
6.50860696	3.96740600	104.44040000
6.51360696	3.96740600	101.90130000
6.51860696	3.96740600	99.67955000
6.52360696	3.96740600	97.18314000
6.52860696	3.96740600	95.15671000
6.53360696	3.90636900	91.69592000
6.53860696	3.67748000	87.52708000
6.54360696	4.85244300	84.53627000
6.54860696	7.40073800	83.43150000
6.55360696	7.40073800	81.38065000
6.55860696	4.85244300	79.06735000
6.56360696	3.61644300	76.47939000
6.56860696	3.61644300	74.16608000
6.57360696	4.85244300	72.09692000
6.57860696	7.40073800	70.89450000
6.58360696	7.40073800	68.33094000
6.58860696	4.85244300	64.99831000
6.59360696	3.67748000	62.43476000
6.59860696	3.90636900	61.23233000
6.60360696	3.96740600	59.13877000
6.60860696	3.96740600	56.72781000
6.61360696	3.96740600	54.58540000
6.61860696	3.96740600	53.19987000
6.62360696	3.96740600	51.50304000
6.62860696	3.96740600	49.93438000
6.63360696	3.96740600	48.68312000
6.63860696	3.96740600	48.13379000
6.64360696	3.96740600	46.88253000
6.64860696	3.96740600	45.31388000
6.65360696	3.96740600	43.56823000
6.65860696	3.96740600	41.99957000
6.66360696	3.96740600	40.74831000
6.66860696	3.96740600	40.19898000
6.67360696	3.96740600	38.92331000
6.67860696	3.96740600	37.26310000
6.68360696	3.96740600	35.96301000
6.68860696	3.96740600	35.32212000
6.69360696	3.96740600	34.49812000
6.69860696	3.96740600	33.75347000
6.70360696	3.96740600	32.92947000
6.70860696	3.96740600	32.28858000
6.71360696	3.96740600	30.98849000
6.71860696	3.96740600	29.32829000
6.72360696	3.96740600	28.00378000
6.72860696	3.96740600	27.26524000
6.73360696	3.96740600	26.88681000
6.73860696	3.96740600	27.06992000
6.74360696	3.96740600	26.67318000
6.74860696	3.96740600	25.83697000
6.75360696	3.96740600	24.94583000
6.75860696	3.96740600	24.10962000
6.76360696	3.96740600	23.71288000
6.76860696	3.96740600	23.89599000
6.77360696	3.96740600	23.49925000
6.77860696	3.96740600	22.66304000
6.78360696	3.96740600	21.77190000
6.78860696	3.96740600	20.93570000
6.79360696	3.96740600	20.53896000
6.79860696	3.96740600	20.72207000
6.80360696	3.96740600	20.32533000
6.80860696	3.96740600	19.48912000
6.81360696	3.96740600	18.59798000
6.81860696	3.96740600	17.76177000
6.82360696	3.96740600	17.36503000
6.82860696	3.96740600	17.54814000
6.83360696	3.96740600	17.12699000
6.83860696	3.96740600	16.19922000
6.84360696	3.96740600	15.75365000
6.84860696	3.96740600	15.84521000
6.85360696	3.96740600	15.89404000
6.85860696	3.96740600	15.98559000
6.86360696	3.96740600	15.54002000
6.86860696	3.96740600	14.61226000
6.87360696	3.96740600	14.16669000
6.87860696	3.96740600	14.25825000
6.88360696	3.96740600	14.28266000
6.88860696	3.96740600	14.28266000
6.89360696	3.96740600	14.30708000
6.89860696	3.96740600	14.39863000
6.90360696	3.96740600	13.95306000
6.90860696	3.96740600	13.02530000
6.91360696	3.96740600	12.57973000
6.91860696	3.96740600	12.67128000
6.92360696	3.96740600	12.72011000
6.92860696	3.96740600	12.81167000
6.93360696	3.96740600	12.36610000
6.93860696	3.96740600	11.43834000
6.94360696	3.96740600	10.99277000
6.94860696	3.96740600	11.08432000
6.95360696	3.96740600	11.10874000
6.95860696	3.96740600	11.10874000
6.96360696	3.96740600	11.13315000
6.96860696	3.96740600	11.22471000
6.97360696	3.96740600	10.77914000
6.97860696	3.96740600	9.85137500
6.98360696	3.96740600	9.40580500
6.98860696	3.96740600	9.49735900
6.99360696	3.96740600	9.54619000
6.99860696	3.96740600	9.63774600
7.00360696	3.96740600	9.16776000
7.00860696	3.96740600	8.14844100
7.01360696	3.96740600	8.14844100
7.01860696	3.96740600	9.16776000
7.02360696	3.96740600	9.63774600
7.02860696	3.96740600	9.54619000
7.03360696	3.96740600	9.52177400
7.03860696	3.96740600	9.52177400
7.04360696	3.96740600	9.54619000
7.04860696	3.96740600	9.63774600
7.05360696	3.96740600	9.16776000
7.05860696	3.96740600	8.14844100
7.06360696	3.96740600	8.17285700
7.06860696	3.96740600	9.28373100
7.07360696	3.96740600	9.30814500
7.07860696	3.96740600	8.28882700
7.08360696	3.96740600	7.81884200
7.08860696	3.96740600	7.91039800
7.09360696	3.96740600	7.93481200
7.09860696	3.96740600	7.93481200
7.10360696	3.96740600	7.93481200
7.10860696	3.96740600	7.93481200
7.11360696	3.96740600	7.95922800
7.11860696	3.96740600	8.05078300
7.12360696	3.96740600	7.60521200
7.12860696	3.96740600	6.67745000
7.13360696	3.96740600	6.25629500
7.13860696	3.96740600	6.43940500
7.14360696	3.96740600	6.01825000
7.14860696	3.96740600	5.09048700
7.15360696	3.96740600	4.64491700
7.15860696	3.96740600	4.73647300
7.16360696	3.96740600	4.76088700
7.16860696	3.96740600	4.76088700
7.17360696	3.96740600	4.78530200
7.17860696	3.96740600	4.87685800
7.18360696	3.96740600	4.40687300
7.18860696	3.96740600	3.38755500
7.19360696	3.96740600	3.38755500
7.19860696	3.96740600	4.40687300
7.20360696	3.96740600	4.87685800
7.20860696	3.96740600	4.78530200
7.21360696	3.96740600	4.78530200
7.21860696	3.96740600	4.87685800
7.22360696	3.96740600	4.40687300
7.22860696	3.96740600	3.38755500
7.23360696	3.96740600	3.41196900
7.23860696	3.96740600	4.52284300
7.24360696	3.96740600	4.52284300
7.24860696	3.96740600	3.41196900
7.25360696	3.96740600	3.41196900
7.25860696	3.96740600	4.52284300
7.26360696	4.02844300	4.52284300
7.26860696	4.25733200	3.41196900
7.27360696	3.08236900	3.38755500
7.27860696	0.53407390	4.40687300
7.28360696	0.59511090	4.85244300
7.28860696	3.37229500	4.66933200
7.29360696	3.43333200	5.09048700
7.29860696	0.88503670	6.01825000
7.30360696	-0.35096280	6.46382000
7.30860696	-0.35096280	6.37226500
7.31360696	0.82399970	6.34785000
7.31860696	3.14340600	6.34785000
7.32360696	4.31836900	6.37226500
7.32860696	4.31836900	6.46382000
7.33360696	3.14340600	6.01825000
7.33860696	0.82399970	5.09048700
7.34360696	-0.28992580	4.66933200
7.34860696	-0.06103702	4.85244300
7.35360696	-0.06103702	4.43128700
7.35860696	-0.28992580	3.50352500
7.36360696	0.82399970	3.03354000
7.36860696	3.14340600	3.03354000
7.37360696	4.25733200	3.50352500
7.37860696	4.02844300	4.43128700
7.38360696	4.02844300	4.90127200
7.38860696	4.25733200	4.90127200
7.39360696	3.08236900	4.43128700
7.39860696	0.53407390	3.50352500
7.40360696	0.59511090	3.05795500
7.40860696	3.37229500	3.14951000
7.41360696	3.37229500	3.17392500
7.41860696	0.59511090	3.17392500
7.42360696	0.59511090	3.17392500
7.42860696	3.37229500	3.17392500
7.43360696	3.43333200	3.14951000
7.43860696	0.88503670	3.05795500
7.44360696	-0.35096280	3.52794000
7.44860696	-0.35096280	4.54725700
7.45360696	0.88503670	4.54725700
7.45860696	3.43333200	3.52794000
7.46360696	3.43333200	3.05795500
7.46860696	0.88503670	3.14951000
7.47360696	-0.28992580	3.19834000
7.47860696	-0.06103702	3.28989500
7.48360696	0.00000000	2.84432500
7.48860696	0.00000000	1.91656200
7.49360696	0.00000000	1.47099200
7.49860696	0.00000000	1.56254800
7.50360696	0.00000000	1.58696200
7.50860696	0.00000000	1.58696200
7.51360696	0.00000000	1.56254800
7.51860696	0.00000000	1.47099200
7.52360696	0.00000000	1.91656200
7.52860696	0.00000000	2.84432500
7.53360696	-0.06103702	3.31431000
7.53860696	-0.28992580	3.31431000
7.54360696	0.88503670	2.81991000
7.54860696	3.43333200	1.80059200
7.55360696	3.43333200	1.80059200
7.55860696	0.88503670	2.81991000
7.56360696	-0.28992580	3.31431000
7.56860696	-0.06103702	3.31431000
7.57360696	0.00000000	2.81991000
7.57860696	0.00000000	1.80059200
7.58360696	-0.06103702	1.80059200
7.58860696	-0.28992580	2.81991000
7.59360696	0.88503670	3.28989500
7.59860696	3.43333200	3.19834000
7.60360696	3.43333200	3.17392500
7.60860696	0.88503670	3.17392500
7.61360696	-0.28992580	3.17392500
7.61860696	-0.06103702	3.17392500
7.62360696	0.00000000	3.17392500
7.62860696	0.00000000	3.17392500
7.63360696	0.00000000	3.14951000
7.63860696	0.00000000	3.05795500
7.64360696	0.00000000	3.55235400
7.64860696	0.00000000	4.66322800
7.65360696	0.00000000	4.19324400
7.65860696	0.00000000	2.15460700
7.66360696	0.00000000	1.68462200
7.66860696	0.00000000	2.79549500
7.67360696	0.00000000	3.28989500
7.67860696	0.00000000	3.19834000
7.68360696	0.00000000	3.17392500
7.68860696	0.00000000	3.17392500
7.69360696	0.00000000	3.19834000
7.69860696	0.00000000	3.28989500
7.70360696	0.00000000	2.84432500
7.70860696	0.00000000	1.91656200
7.71360696	0.00000000	1.44657700
7.71860696	0.00000000	1.44657700
7.72360696	0.00000000	1.91656200
7.72860696	0.00000000	2.84432500
7.73360696	0.00000000	3.28989500
7.73860696	0.00000000	3.19834000
7.74360696	0.00000000	3.19834000
7.74860696	0.00000000	3.28989500
7.75360696	0.00000000	2.81991000
7.75860696	0.00000000	1.80059200
7.76360696	0.00000000	1.82500700
7.76860696	0.00000000	2.93588100
7.77360696	0.00000000	2.98471000
7.77860696	0.00000000	2.05694700
7.78360696	0.00000000	1.14139200
7.78860696	0.00000000	0.30518510
7.79360696	0.00000000	-0.11597030
7.79860696	0.00000000	-0.02441481
7.80360696	0.00000000	0.00000000
7.80860696	0.00000000	0.00000000
7.81360696	0.00000000	0.00000000
7.81860696	0.00000000	0.00000000
7.82360696	0.00000000	0.00000000
7.82860696	0.00000000	0.00000000
7.83360696	0.00000000	-0.02441481
7.83860696	0.00000000	-0.11597030
7.84360696	0.00000000	0.35401470
7.84860696	0.00000000	1.37333300
7.85360696	0.00000000	1.34891800
7.85860696	0.00000000	0.23804440
7.86360696	0.00000000	0.21362960
7.86860696	0.00000000	1.23294800
7.87360696	0.00000000	1.72734800
7.87860696	0.00000000	1.72734800
7.88360696	0.00000000	1.23294800
7.88860696	0.00000000	0.21362960
7.89360696	0.00000000	0.21362960
7.89860696	0.00000000	1.23294800
7.90360696	0.00000000	1.70293300
7.90860696	0.00000000	1.61137700
7.91360696	0.00000000	1.56254800
7.91860696	0.00000000	1.47099200
7.92360696	0.00000000	1.91656200
7.92860696	0.00000000	2.84432500
7.93360696	0.00000000	3.31431000
7.93860696	0.00000000	3.31431000
7.94360696	0.00000000	2.84432500
7.94860696	0.00000000	1.91656200
7.95360696	0.00000000	1.47099200
7.95860696	0.00000000	1.56254800
7.96360696	0.00000000	1.58696200
7.96860696	0.00000000	1.58696200
7.97360696	0.00000000	1.58696200
7.97860696	0.00000000	1.58696200
7.98360696	0.00000000	1.58696200
7.98860696	0.00000000	1.58696200
7.99360696	0.00000000	1.58696200
7.99860696	0.00000000	1.58696200
8.00360696	0.00000000	1.58696200
8.00860696	0.00000000	1.58696200
8.01360696	0.00000000	1.58696200
8.01860696	0.00000000	1.58696200
8.02360696	0.00000000	1.61137700
8.02860696	0.00000000	1.70293300
8.03360696	0.00000000	1.25736300
8.03860696	0.00000000	0.32959990
8.04360696	0.00000000	-0.14038510
8.04860696	0.00000000	-0.14038510
8.05360696	0.00000000	0.35401470
8.05860696	0.00000000	1.37333300
8.06360696	0.00000000	1.34891800
8.06860696	0.00000000	0.23804440
8.07360696	0.00000000	0.21362960
8.07860696	0.00000000	1.23294800
8.08360696	0.00000000	1.70293300
8.08860696	0.00000000	1.61137700
8.09360696	0.00000000	1.58696200
8.09860696	0.00000000	1.58696200
8.10360696	0.00000000	1.58696200
8.10860696	0.00000000	1.58696200
8.11360696	0.00000000	1.58696200
8.11860696	0.00000000	1.58696200
8.12360696	0.00000000	1.58696200
8.12860696	0.00000000	1.58696200
8.13360696	0.00000000	1.61137700
8.13860696	0.00000000	1.70293300
8.14360696	0.00000000	1.25736300
8.14860695	0.00000000	0.32959990
8.15360695	0.00000000	-0.11597030
8.15860695	0.00000000	-0.02441481
8.16360695	0.00000000	0.00000000
8.16860695	0.00000000	0.00000000
8.17360695	0.00000000	-0.02441481
8.17860695	0.00000000	-0.11597030
8.18360695	0.00000000	0.35401470
8.18860695	0.00000000	1.37333300
8.19360695	0.00000000	1.34891800
8.19860695	0.00000000	0.23804440
8.20360695	0.00000000	0.23804440
8.20860695	0.00000000	1.34891800
8.21360695	0.00000000	1.37333300
8.21860695	0.00000000	0.35401470
8.22360695	0.00000000	-0.11597030
8.22860695	0.00000000	-0.02441481
8.23360695	0.00000000	0.00000000
8.23860695	0.00000000	0.00000000
8.24360695	0.00000000	0.00000000
8.24860695	0.00000000	0.00000000
8.25360695	0.00000000	0.00000000
8.25860695	0.00000000	0.00000000
8.26360695	0.00000000	0.00000000
8.26860695	0.00000000	0.00000000
8.27360695	0.00000000	0.00000000
8.27860695	0.00000000	0.00000000
8.28360695	0.00000000	0.00000000
8.28860695	0.00000000	0.00000000
8.29360695	0.00000000	0.00000000
8.29860695	0.00000000	0.00000000
8.30360695	0.00000000	0.00000000
8.30860695	0.00000000	0.00000000
8.31360695	0.00000000	0.00000000
8.31860695	0.00000000	0.00000000
8.32360695	0.00000000	0.02441481
8.32860695	0.00000000	0.11597030
8.33360695	0.00000000	-0.35401470
8.33860695	0.00000000	-1.37333300
8.34360695	0.00000000	-1.37333300
8.34860695	0.00000000	-0.35401470
8.35360695	0.00000000	0.11597030
8.35860695	0.00000000	0.02441481
8.36360695	0.00000000	0.00000000
8.36860695	0.00000000	0.00000000
8.37360695	0.00000000	0.00000000
8.37860695	0.00000000	0.00000000
8.38360695	0.06103702	0.00000000
8.38860695	0.28992580	0.00000000
8.39360695	-0.88503670	0.00000000
8.39860695	-3.43333200	0.00000000
8.40360695	-3.43333200	0.00000000
8.40860695	-0.88503670	0.00000000
8.41360695	0.28992580	0.00000000
8.41860695	0.06103702	0.00000000
8.42360695	0.00000000	0.00000000
8.42860695	0.00000000	0.00000000
8.43360695	0.00000000	0.00000000
8.43860695	0.00000000	0.00000000
8.44360695	0.00000000	0.00000000
8.44860695	0.00000000	0.00000000
8.45360695	0.00000000	0.00000000
8.45860695	0.00000000	0.00000000
8.46360695	0.00000000	-0.02441481
8.46860695	0.00000000	-0.11597030
8.47360695	0.00000000	0.32959990
8.47860695	0.00000000	1.25736300
8.48360695	0.00000000	1.70293300
8.48860695	0.00000000	1.61137700
8.49360695	0.00000000	1.58696200
8.49860695	0.00000000	1.58696200
8.50360695	0.00000000	1.58696200
8.50860695	0.00000000	1.58696200
8.51360695	0.00000000	1.56254800
8.51860695	0.00000000	1.47099200
8.52360695	0.00000000	1.94097700
8.52860695	0.00000000	2.96029500
8.53360695	0.00000000	2.96029500
8.53860695	0.00000000	1.94097700
8.54360695	0.00000000	1.49540700
8.54860695	0.00000000	1.67851800
8.55360695	0.00000000	1.28177700
8.55860695	0.00000000	0.44557020
8.56360695	0.00000000	-0.44557020
8.56860695	0.00000000	-1.28177700
8.57360695	0.00000000	-1.72734800
8.57860695	0.00000000	-1.72734800
8.58360695	0.00000000	-1.25736300
8.58860695	0.00000000	-0.32959990
8.59360695	0.00000000	0.11597030
8.59860695	0.00000000	0.02441481
8.60360695	0.00000000	0.02441481
8.60860695	0.00000000	0.11597030
8.61360695	0.00000000	-0.32959990
8.61860695	0.00000000	-1.25736300
8.62360695	0.00000000	-1.72734800
8.62860695	0.00000000	-1.72734800
8.63360695	0.00000000	-1.25736300
8.63860695	0.00000000	-0.32959990
8.64360695	0.00000000	0.14038510
8.64860695	0.00000000	0.14038510
8.65360695	0.00000000	-0.32959990
8.65860695	0.00000000	-1.25736300
8.66360695	0.00000000	-1.70293300
8.66860695	0.00000000	-1.61137700
8.67360695	0.00000000	-1.58696200
8.67860695	0.00000000	-1.58696200
8.68360695	0.00000000	-1.58696200
8.68860695	0.00000000	-1.58696200
8.69360695	0.00000000	-1.58696200
8.69860695	0.00000000	-1.58696200
8.70360695	0.00000000	-1.58696200
8.70860695	0.00000000	-1.58696200
8.71360695	0.00000000	-1.63579200
8.71860695	0.00000000	-1.81890300
8.72360695	0.00000000	-0.90334780
8.72860695	0.00000000	1.04373300
8.73360695	0.00000000	1.48930300
8.73860695	0.00000000	0.37842950
8.74360695	0.00000000	-0.11597030
8.74860695	0.00000000	-0.02441481
8.75360695	0.00000000	-0.02441481
8.75860695	0.00000000	-0.11597030
8.76360695	0.00000000	0.32959990
8.76860695	0.00000000	1.25736300
8.77360695	0.00000000	1.72734800
8.77860695	0.00000000	1.72734800
8.78360695	0.00000000	1.28177700
8.78860695	0.00000000	0.44557020
8.79360695	0.00000000	-0.44557020
8.79860695	0.00000000	-1.28177700
8.80360695	0.00000000	-1.72734800
8.80860695	0.00000000	-1.72734800
8.81360695	0.00000000	-1.23294800
8.81860695	0.00000000	-0.21362960
8.82360695	0.00000000	-0.21362960
8.82860695	0.00000000	-1.23294800
8.83360695	0.00000000	-1.70293300
8.83860695	0.00000000	-1.61137700
8.84360695	0.00000000	-1.58696200
8.84860695	0.00000000	-1.58696200
8.85360695	0.00000000	-1.58696200
8.85860695	0.00000000	-1.58696200
8.86360695	0.00000000	-1.61137700
8.86860695	0.00000000	-1.70293300
8.87360695	0.00000000	-1.25736300
8.87860695	0.00000000	-0.32959990
8.88360695	0.00000000	0.09155553
8.88860695	0.00000000	-0.09155553
8.89360695	0.00000000	0.32959990
8.89860695	0.00000000	1.25736300
8.90360695	0.00000000	1.72734800
8.90860695	0.00000000	1.72734800
8.91360695	0.00000000	1.25736300
8.91860695	0.00000000	0.32959990
8.92360695	0.00000000	-0.14038510
8.92860695	0.00000000	-0.14038510
8.93360695	0.00000000	0.35401470
8.93860695	0.00000000	1.37333300
8.94360695	0.00000000	1.34891800
8.94860695	0.00000000	0.23804440
8.95360695	0.00000000	0.23804440
8.95860695	0.00000000	1.34891800
8.96360695	0.00000000	1.37333300
8.96860695	0.00000000	0.35401470
8.97360695	0.00000000	-0.11597030
8.97860695	0.00000000	-0.02441481
8.98360695	0.00000000	0.00000000
8.98860695	0.00000000	0.00000000
8.99360695	0.00000000	0.00000000
8.99860695	0.00000000	0.00000000
9.00360695	0.00000000	-0.02441481
9.00860695	0.00000000	-0.11597030
9.01360695	0.00000000	0.32959990
9.01860695	0.00000000	1.25736300
9.02360695	0.00000000	1.72734800
9.02860695	0.00000000	1.72734800
