Time	Channel A	Channel B
(us)	(mV)	(mV)

-1.01210496	0.00000000	5.23087300
-1.00710496	0.00000000	6.15863500
-1.00210496	0.00000000	6.13422100
-0.99710496	0.00000000	5.11490200
-0.99210496	0.00000000	4.66933200
-0.98710496	0.00000000	4.85244300
-0.98210496	0.00000000	4.40687300
-0.97710496	0.00000000	3.38755500
-0.97210496	0.00000000	3.38755500
-0.96710496	0.00000000	4.40687300
-0.96210496	0.00000000	4.90127200
-0.95710496	0.00000000	4.90127200
-0.95210496	0.00000000	4.40687300
-0.94710496	0.00000000	3.38755500
-0.94210496	0.00000000	3.41196900
-0.93710496	0.00000000	4.52284300
-0.93210496	0.00000000	4.54725700
-0.92710496	0.00000000	3.52794000
-0.92210496	0.00000000	3.05795500
-0.91710496	0.00000000	3.14951000
-0.91210496	0.00000000	3.14951000
-0.90710496	0.00000000	3.05795500
-0.90210496	0.00000000	3.57676900
-0.89710496	0.00000000	4.77919800
-0.89210496	0.00000000	3.86364300
-0.88710496	0.00000000	0.89724420
-0.88210496	0.00000000	-0.06714072
-0.87710496	0.00000000	0.95217750
-0.87210496	0.00000000	2.38654800
-0.86710496	0.00000000	4.24207300
-0.86210496	0.00000000	4.68764300
-0.85710496	0.00000000	3.66832500
-0.85210496	0.00000000	2.70394000
-0.84710496	0.00000000	1.77617700
-0.84210496	0.00000000	1.80059200
-0.83710496	0.00000000	2.81991000
-0.83210496	0.00000000	3.28989500
-0.82710496	0.00000000	3.19834000
-0.82210496	0.00000000	3.17392500
-0.81710496	0.00000000	3.17392500
-0.81210496	0.00000000	3.17392500
-0.80710496	0.00000000	3.17392500
-0.80210496	0.00000000	3.17392500
-0.79710496	0.00000000	3.17392500
-0.79210496	0.00000000	3.17392500
-0.78710496	0.00000000	3.17392500
-0.78210496	0.00000000	3.17392500
-0.77710496	0.00000000	3.17392500
-0.77210496	0.00000000	3.17392500
-0.76710496	0.00000000	3.17392500
-0.76210496	0.00000000	3.17392500
-0.75710496	0.00000000	3.17392500
-0.75210496	0.00000000	3.14951000
-0.74710496	0.00000000	3.05795500
-0.74210496	0.00000000	3.52794000
-0.73710496	0.00000000	4.54725700
-0.73210496	0.00000000	4.52284300
-0.72710496	0.00000000	3.41196900
-0.72210496	0.00000000	3.38755500
-0.71710496	0.00000000	4.40687300
-0.71210496	0.00000000	4.90127200
-0.70710496	0.00000000	4.90127200
-0.70210496	0.00000000	4.43128700
-0.69710496	0.00000000	3.50352500
-0.69210496	0.00000000	3.05795500
-0.68710496	0.00000000	3.14951000
-0.68210496	0.00000000	3.14951000
-0.67710496	0.00000000	3.05795500
-0.67210496	0.00000000	3.50352500
-0.66710496	0.00000000	4.43128700
-0.66210496	0.00000000	4.87685800
-0.65710496	0.00000000	4.78530200
-0.65210496	0.00000000	4.76088700
-0.64710496	0.00000000	4.76088700
-0.64210496	0.00000000	4.76088700
-0.63710496	0.00000000	4.76088700
-0.63210496	0.00000000	4.76088700
-0.62710496	0.00000000	4.76088700
-0.62210496	0.00000000	4.78530200
-0.61710496	0.00000000	4.87685800
-0.61210496	0.00000000	4.43128700
-0.60710496	0.00000000	3.50352500
-0.60210496	0.00000000	3.03354000
-0.59710496	0.00000000	3.03354000
-0.59210496	0.00000000	3.55235400
-0.58710496	0.00000000	4.66322800
-0.58210496	0.00000000	4.19324400
-0.57710496	0.00000000	2.15460700
-0.57210496	0.00000000	1.68462200
-0.56710496	0.00000000	2.79549500
-0.56210496	0.00000000	3.31431000
-0.55710496	0.00000000	3.31431000
-0.55210496	0.00000000	2.84432500
-0.54710496	0.00000000	1.91656200
-0.54210496	0.00000000	1.44657700
-0.53710496	0.00000000	1.44657700
-0.53210496	0.00000000	1.94097700
-0.52710496	0.00000000	2.96029500
-0.52210496	0.00000000	2.96029500
-0.51710496	0.00000000	1.94097700
-0.51210496	0.00000000	1.47099200
-0.50710496	0.00000000	1.56254800
-0.50210496	0.00000000	1.56254800
-0.49710496	0.00000000	1.47099200
-0.49210496	0.00000000	1.94097700
-0.48710496	0.00000000	2.96029500
-0.48210496	0.00000000	2.96029500
-0.47710496	0.00000000	1.94097700
-0.47210496	0.00000000	1.44657700
-0.46710496	0.00000000	1.44657700
-0.46210496	0.00000000	1.91656200
-0.45710496	0.00000000	2.84432500
-0.45210496	0.00000000	3.28989500
-0.44710496	0.00000000	3.19834000
-0.44210496	0.00000000	3.17392500
-0.43710496	0.00000000	3.17392500
-0.43210496	0.00000000	3.17392500
-0.42710496	0.00000000	3.17392500
-0.42210496	0.00000000	3.14951000
-0.41710496	0.00000000	3.05795500
-0.41210496	0.00000000	3.52794000
-0.40710496	0.00000000	4.54725700
-0.40210496	0.00000000	4.52284300
-0.39710496	0.00000000	3.41196900
-0.39210496	0.00000000	3.38755500
-0.38710496	0.00000000	4.40687300
-0.38210496	0.00000000	4.87685800
-0.37710496	0.00000000	4.78530200
-0.37210496	0.00000000	4.76088700
-0.36710496	0.00000000	4.76088700
-0.36210496	0.00000000	4.78530200
-0.35710496	0.00000000	4.87685800
-0.35210496	0.00000000	4.43128700
-0.34710496	0.00000000	3.50352500
-0.34210496	0.00000000	3.05795500
-0.33710496	0.00000000	3.14951000
-0.33210496	0.00000000	3.14951000
-0.32710496	0.00000000	3.05795500
-0.32210496	0.00000000	3.52794000
-0.31710496	0.00000000	4.54725700
-0.31210496	0.00000000	4.54725700
-0.30710496	0.00000000	3.52794000
-0.30210496	0.00000000	3.05795500
-0.29710496	0.00000000	3.14951000
-0.29210496	0.00000000	3.17392500
-0.28710496	0.00000000	3.17392500
-0.28210496	0.00000000	3.17392500
-0.27710496	0.00000000	3.17392500
-0.27210496	0.00000000	3.17392500
-0.26710496	0.00000000	3.17392500
-0.26210496	0.00000000	3.19834000
-0.25710496	0.00000000	3.28989500
-0.25210496	0.00000000	2.84432500
-0.24710496	0.00000000	1.91656200
-0.24210496	0.00000000	1.47099200
-0.23710496	0.00000000	1.56254800
-0.23210496	-0.06103702	1.58696200
-0.22710496	-0.28992580	1.58696200
-0.22210496	0.82399970	1.58696200
-0.21710496	3.14340600	1.58696200
-0.21210496	4.19629500	1.58696200
-0.20710496	3.73851700	1.58696200
-0.20210496	4.79140600	1.58696200
-0.19710496	7.11081200	1.58696200
-0.19210496	8.16370100	1.61137700
-0.18710496	7.70592300	1.70293300
-0.18210496	8.75881200	1.23294800
-0.17710496	11.07822000	0.21362960
-0.17210496	12.13111000	0.21362960
-0.16710496	11.67333000	1.23294800
-0.16210496	12.66518000	1.70293300
-0.15710496	14.75570000	1.61137700
-0.15210496	16.92251000	1.61137700
-0.14710496	18.78414000	1.70293300
-0.14210496	20.88992000	1.23294800
-0.13710496	22.75155000	0.21362960
-0.13210496	24.85732000	0.23804440
-0.12710496	26.71895000	1.34891800
-0.12210496	28.82473000	1.39774800
-0.11710496	30.68636000	0.46998500
-0.11210496	32.74636000	-0.44557020
-0.10710496	34.34858000	-1.28177700
-0.10210496	37.59880000	-1.70293300
-0.09710496	41.74932000	-1.61137700
-0.09210496	44.93850000	-1.56254800
-0.08710496	46.31183000	-1.47099200
-0.08210496	49.50102000	-1.91656200
-0.07710496	53.65154000	-2.84432500
-0.07210496	56.84072000	-3.28989500
-0.06710496	58.21405000	-3.19834000
-0.06210496	61.40324000	-3.17392500
-0.05710496	65.55375000	-3.17392500
-0.05210496	68.74294000	-3.17392500
-0.04710496	70.13153000	-3.17392500
-0.04210496	73.25967000	-3.19834000
-0.03710496	77.18130000	-3.28989500
-0.03210496	81.54546000	-2.84432500
-0.02710496	85.46708000	-1.91656200
-0.02210496	88.59523000	-1.49540700
-0.01710496	89.96856000	-1.67851800
-0.01210496	93.15775000	-1.23294800
-0.00710496	97.30827000	-0.21362960
-0.00210496	100.49750000	-0.21362960
0.00289504	101.87080000	-1.23294800
0.00789504	105.06000000	-1.70293300
0.01289504	109.21050000	-1.61137700
0.01789504	112.46070000	-1.58696200
0.02289504	114.06290000	-1.58696200
0.02789504	116.07710000	-1.58696200
0.03289504	117.67940000	-1.58696200
0.03789504	120.92960000	-1.58696200
0.04289504	125.08010000	-1.58696200
0.04789504	128.33030000	-1.56254800
0.05289504	129.93250000	-1.47099200
0.05789504	131.94680000	-1.94097700
0.06289504	133.54900000	-2.96029500
0.06789504	136.79920000	-2.96029500
0.07289504	140.96500000	-1.94097700
0.07789504	144.21520000	-1.47099200
0.08289504	145.81740000	-1.56254800
0.08789504	147.87740000	-1.58696200
0.09289504	149.73910000	-1.58696200
0.09789504	151.84480000	-1.58696200
0.10289504	153.70650000	-1.58696200
0.10789504	155.81220000	-1.58696200
0.11289504	157.67390000	-1.58696200
0.11789504	159.77960000	-1.58696200
0.12289504	161.64130000	-1.58696200
0.12789504	163.74700000	-1.58696200
0.13289504	165.60870000	-1.58696200
0.13789504	167.77550000	-1.58696200
0.14289504	169.86600000	-1.58696200
0.14789504	170.85790000	-1.56254800
0.15289504	170.40010000	-1.47099200
0.15789504	171.39190000	-1.94097700
0.16289504	173.48250000	-2.96029500
0.16789504	175.71030000	-2.96029500
0.17289504	177.80080000	-1.94097700
0.17789504	178.79270000	-1.47099200
0.18289504	178.33490000	-1.56254800
0.18789504	179.38780000	-1.61137700
0.19289504	181.70720000	-1.70293300
0.19789504	182.76010000	-1.23294800
0.20289504	182.30230000	-0.21362960
0.20789504	183.35520000	-0.21362960
0.21289504	185.67460000	-1.23294800
0.21789504	186.72750000	-1.70293300
0.22289504	186.26970000	-1.61137700
0.22789504	187.32260000	-1.58696200
0.23289504	189.64200000	-1.58696200
0.23789504	190.75590000	-1.58696200
0.24289504	190.52700000	-1.58696200
0.24789504	190.46600000	-1.58696200
0.25289504	190.46600000	-1.58696200
0.25789504	190.52700000	-1.58696200
0.26289504	190.75590000	-1.58696200
0.26789504	189.64200000	-1.61137700
0.27289504	187.32260000	-1.70293300
0.27789503	186.20870000	-1.23294800
0.28289503	186.43760000	-0.21362960
0.28789503	186.55960000	-0.23804440
0.29289503	186.78850000	-1.34891800
0.29789503	185.67460000	-1.37333300
0.30289503	183.35520000	-0.35401470
0.30789503	182.30230000	0.11597030
0.31289503	182.76010000	0.02441481
0.31789503	181.76820000	0.00000000
0.32289503	179.67770000	0.00000000
0.32789503	177.44990000	0.02441481
0.33289503	175.35930000	0.11597030
0.33789503	174.36750000	-0.37842950
0.34289503	174.82530000	-1.48930300
0.34789503	173.77240000	-1.04373300
0.35289503	171.45300000	0.90334780
0.35789503	170.40010000	1.84331800
0.36289503	170.85790000	1.75176200
0.36789503	169.80500000	1.25736300
0.37289503	167.48560000	0.32959990
0.37789503	166.43270000	-0.11597030
0.38289503	166.89050000	-0.02441481
0.38789503	165.83760000	0.02441481
0.39289503	163.51820000	0.11597030
0.39789503	162.40430000	-0.35401470
0.40289503	162.63310000	-1.37333300
0.40789503	162.75520000	-1.37333300
0.41289503	162.98410000	-0.35401470
0.41789503	161.87020000	0.11597030
0.42289503	159.55080000	0.02441481
0.42789503	158.49790000	0.00000000
0.43289503	158.95570000	0.00000000
0.43789503	157.90280000	0.00000000
0.44289503	155.58340000	0.00000000
0.44789503	154.46940000	0.00000000
0.45289503	154.69830000	0.00000000
0.45789503	154.75940000	-0.02441481
0.46289503	154.75940000	-0.11597030
0.46789503	154.75940000	0.32959990
0.47289503	154.75940000	1.25736300
0.47789503	154.82040000	1.70293300
0.48289503	155.04930000	1.61137700
0.48789503	153.93530000	1.58696200
0.49289503	151.61590000	1.58696200
0.49789503	150.50200000	1.58696200
0.50289503	150.73090000	1.58696200
0.50789503	150.79190000	1.58696200
0.51289503	150.79190000	1.58696200
0.51789503	150.85300000	1.58696200
0.52289503	151.08190000	1.58696200
0.52789503	149.96790000	1.61137700
0.53289503	147.64850000	1.70293300
0.53789503	146.53460000	1.25736300
0.54289503	146.76350000	0.32959990
0.54789503	146.82450000	-0.11597030
0.55289503	146.82450000	-0.02441481
0.55789503	146.82450000	0.00000000
0.56289503	146.82450000	0.00000000
0.56789503	146.88560000	0.00000000
0.57289503	147.11450000	0.00000000
0.57789503	146.00050000	0.00000000
0.58289503	143.68110000	0.00000000
0.58789503	142.56720000	0.00000000
0.59289503	142.79610000	0.00000000
0.59789503	142.85710000	0.00000000
0.60289503	142.85710000	0.00000000
0.60789503	142.85710000	-0.02441481
0.61289503	142.85710000	-0.11597030
0.61789503	142.85710000	0.32959990
0.62289503	142.85710000	1.25736300
0.62789503	142.85710000	1.70293300
0.63289503	142.85710000	1.61137700
0.63789503	142.91820000	1.58696200
0.64289503	143.14710000	1.58696200
0.64789503	142.03310000	1.56254800
0.65289503	139.69850000	1.47099200
0.65789503	138.58450000	1.91656200
0.66289503	138.81340000	2.84432500
0.66789503	138.87450000	3.28989500
0.67289503	138.87450000	3.19834000
0.67789503	138.87450000	3.19834000
0.68289503	138.87450000	3.28989500
0.68789503	138.93550000	2.84432500
0.69289503	139.16440000	1.91656200
0.69789503	138.05050000	1.44657700
0.70289503	135.73110000	1.44657700
0.70789503	134.61710000	1.94097700
0.71289503	134.84600000	2.96029500
0.71789503	134.90710000	2.96029500
0.72289503	134.90710000	1.94097700
0.72789503	134.90710000	1.47099200
0.73289503	134.90710000	1.56254800
0.73789503	134.90710000	1.56254800
0.74289503	134.90710000	1.47099200
0.74789503	134.96810000	1.94097700
0.75289503	135.19700000	2.96029500
0.75789503	134.08310000	2.93588100
0.76289503	131.76370000	1.82500700
0.76789503	130.64970000	1.80059200
0.77289503	130.87860000	2.81991000
0.77789503	130.93970000	3.31431000
0.78289503	130.93970000	3.31431000
0.78789503	130.93970000	2.86874000
0.79289503	130.93970000	2.03253300
0.79789503	131.00070000	1.11697700
0.80289503	131.22960000	0.18921480
0.80789503	130.11560000	0.23804440
0.81289503	127.79630000	1.34891800
0.81789503	126.68230000	1.34891800
0.82289503	126.91120000	0.23804440
0.82789503	126.97230000	0.21362960
0.83289503	126.97230000	1.23294800
0.83789503	126.97230000	1.70293300
0.84289503	126.97230000	1.61137700
0.84789503	126.97230000	1.58696200
0.85289503	126.97230000	1.58696200
0.85789503	127.03330000	1.58696200
0.86289503	127.26220000	1.58696200
0.86789503	126.14820000	1.58696200
0.87289503	123.82880000	1.58696200
0.87789503	122.71490000	1.56254800
0.88289503	122.94380000	1.47099200
0.88789503	123.00480000	1.91656200
0.89289503	123.00480000	2.84432500
0.89789503	123.00480000	3.31431000
0.90289503	123.00480000	3.31431000
0.90789503	123.06590000	2.84432500
0.91289503	123.29480000	1.91656200
0.91789503	122.18080000	1.47099200
0.92289503	119.86140000	1.56254800
0.92789503	118.74750000	1.61137700
0.93289503	118.97640000	1.70293300
0.93789503	119.03740000	1.25736300
0.94289503	119.03740000	0.32959990
0.94789503	119.03740000	-0.14038510
0.95289503	119.03740000	-0.14038510
0.95789503	119.03740000	0.32959990
0.96289503	119.03740000	1.25736300
0.96789503	119.03740000	1.70293300
0.97289503	119.03740000	1.61137700
0.97789503	119.03740000	1.58696200
0.98289503	119.03740000	1.58696200
0.98789503	119.03740000	1.58696200
0.99289503	119.03740000	1.58696200
0.99789503	119.09850000	1.56254800
1.00289503	119.32740000	1.47099200
1.00789503	118.21340000	1.94097700
1.01289503	115.89400000	2.96029500
1.01789503	114.78010000	2.96029500
1.02289503	115.00900000	1.94097700
1.02789503	115.07000000	1.47099200
1.03289503	115.07000000	1.56254800
1.03789503	115.07000000	1.58696200
1.04289503	115.07000000	1.58696200
1.04789503	115.07000000	1.58696200
1.05289503	115.07000000	1.58696200
1.05789503	115.13110000	1.58696200
1.06289503	115.36000000	1.58696200
1.06789503	114.24600000	1.56254800
1.07289503	111.92660000	1.47099200
1.07789503	110.81270000	1.94097700
1.08289503	111.04160000	2.96029500
1.08789503	111.10260000	2.93588100
1.09289503	111.10260000	1.82500700
1.09789503	111.10260000	1.80059200
1.10289503	111.10260000	2.81991000
1.10789503	111.10260000	3.33872500
1.11289503	111.10260000	3.43028000
1.11789503	111.10260000	2.49031000
1.12289503	111.10260000	0.54322950
1.12789503	111.16370000	0.09765923
1.13289503	111.39250000	1.20853300
1.13789503	110.27860000	1.70293300
1.14289503	107.95920000	1.61137700
1.14789503	106.84530000	1.58696200
1.15289503	107.07420000	1.58696200
1.15789503	107.13520000	1.58696200
1.16289503	107.13520000	1.58696200
1.16789503	107.13520000	1.61137700
1.17289503	107.13520000	1.70293300
1.17789503	107.13520000	1.25736300
1.18289503	107.13520000	0.32959990
1.18789503	107.19630000	-0.14038510
1.19289503	107.42510000	-0.14038510
1.19789503	106.31120000	0.32959990
1.20289503	103.99180000	1.25736300
1.20789503	102.87790000	1.70293300
1.21289503	103.10680000	1.61137700
1.21789503	103.16780000	1.56254800
1.22289503	103.16780000	1.47099200
1.22789503	103.16780000	1.91656200
1.23289503	103.16780000	2.84432500
1.23789503	103.16780000	3.28989500
1.24289503	103.16780000	3.19834000
1.24789503	103.16780000	3.19834000
1.25289503	103.16780000	3.28989500
1.25789503	103.16780000	2.81991000
1.26289503	103.16780000	1.80059200
1.26789503	103.16780000	1.80059200
1.27289503	103.16780000	2.81991000
1.27789503	103.22890000	3.28989500
1.28289503	103.45770000	3.19834000
1.28789503	102.34380000	3.14951000
1.29289503	100.02440000	3.05795500
1.29789503	98.91048000	3.50352500
1.30289503	99.13937000	4.43128700
1.30789503	99.20041000	4.87685800
1.31289503	99.20041000	4.78530200
1.31789503	99.20041000	4.78530200
1.32289503	99.20041000	4.87685800
1.32789503	99.20041000	4.43128700
1.33289503	99.20041000	3.50352500
1.33789503	99.20041000	3.05795500
1.34289503	99.20041000	3.14951000
1.34789503	99.20041000	3.17392500
1.35289503	99.20041000	3.17392500
1.35789503	99.20041000	3.19834000
1.36289503	99.20041000	3.28989500
1.36789503	99.20041000	2.81991000
1.37289503	99.20041000	1.80059200
1.37789503	99.26145000	1.82500700
1.38289503	99.49034000	2.93588100
1.38789503	98.37641000	2.93588100
1.39289503	96.05700000	1.82500700
1.39789503	94.94308000	1.80059200
1.40289503	95.17197000	2.81991000
1.40789503	95.23300000	3.31431000
1.41289503	95.23300000	3.31431000
1.41789503	95.23300000	2.81991000
1.42289503	95.23300000	1.80059200
1.42789503	95.23300000	1.82500700
1.43289503	95.23300000	2.93588100
1.43789503	95.29404000	2.96029500
1.44289503	95.52293000	1.94097700
1.44789503	94.40900000	1.44657700
1.45289503	92.08959000	1.44657700
1.45789503	90.97568000	1.91656200
1.46289503	91.20457000	2.84432500
1.46789503	91.26560000	3.31431000
1.47289503	91.26560000	3.31431000
1.47789503	91.26560000	2.84432500
1.48289503	91.26560000	1.91656200
1.48789503	91.26560000	1.44657700
1.49289503	91.26560000	1.44657700
1.49789503	91.26560000	1.94097700
1.50289503	91.26560000	2.96029500
1.50789503	91.26560000	2.96029500
1.51289503	91.26560000	1.94097700
1.51789503	91.26560000	1.47099200
1.52289503	91.26560000	1.56254800
1.52789503	91.32664000	1.58696200
1.53289503	91.55552000	1.58696200
1.53789503	90.44160000	1.58696200
1.54289503	88.12219000	1.58696200
1.54789503	87.00826000	1.58696200
1.55289503	87.23715000	1.58696200
1.55789503	87.29819000	1.58696200
1.56289503	87.29819000	1.58696200
1.56789503	87.29819000	1.56254800
1.57289503	87.29819000	1.47099200
1.57789503	87.29819000	1.94097700
1.58289503	87.29819000	2.96029500
1.58789503	87.29819000	2.96029500
1.59289503	87.29819000	1.94097700
1.59789503	87.29819000	1.47099200
1.60289503	87.29819000	1.56254800
1.60789503	87.29819000	1.58696200
1.61289503	87.29819000	1.58696200
1.61789503	87.35923000	1.58696200
1.62289503	87.58812000	1.58696200
1.62789503	86.47419000	1.58696200
1.63289503	84.15479000	1.58696200
1.63789503	83.04086000	1.58696200
1.64289503	83.26974000	1.58696200
1.64789503	83.33078000	1.58696200
1.65289503	83.33078000	1.58696200
1.65789503	83.33078000	1.58696200
1.66289503	83.33078000	1.58696200
1.66789503	83.33078000	1.58696200
1.67289503	83.33078000	1.58696200
1.67789503	83.33078000	1.58696200
1.68289503	83.33078000	1.58696200
1.68789503	83.33078000	1.58696200
1.69289503	83.33078000	1.58696200
1.69789503	83.33078000	1.58696200
1.70289503	83.33078000	1.58696200
1.70789503	83.33078000	1.58696200
1.71289503	83.33078000	1.58696200
1.71789503	83.39182000	1.58696200
1.72289503	83.62070000	1.58696200
1.72789503	82.50678000	1.58696200
1.73289503	80.18738000	1.58696200
1.73789503	79.07346000	1.58696200
1.74289503	79.30235000	1.58696200
1.74789503	79.36338000	1.58696200
1.75289503	79.36338000	1.58696200
1.75789503	79.36338000	1.58696200
1.76289503	79.36338000	1.58696200
1.76789503	79.36338000	1.58696200
1.77289503	79.36338000	1.58696200
1.77789503	79.36338000	1.61137700
1.78289503	79.36338000	1.70293300
1.78789503	79.42442000	1.23294800
1.79289503	79.65331000	0.21362960
1.79789503	78.47834000	0.21362960
1.80289503	75.93005000	1.23294800
1.80789503	75.93005000	1.67851800
1.81289503	78.47834000	1.49540700
1.81789503	79.65331000	1.91656200
1.82289503	79.42442000	2.84432500
1.82789503	79.42442000	3.31431000
1.83289503	79.65331000	3.31431000
1.83789503	78.53938000	2.81991000
1.84289503	76.21997000	1.80059200
1.84789503	75.10605000	1.82500700
1.85289503	75.33494000	2.93588100
1.85789503	75.39597000	2.93588100
1.86289503	75.39597000	1.82500700
1.86789503	75.39597000	1.82500700
1.87289503	75.39597000	2.93588100
1.87789503	75.39597000	2.93588100
1.88289503	75.39597000	1.82500700
1.88789503	75.45701000	1.82500700
1.89289503	75.68590000	2.93588100
1.89789503	74.51093000	2.93588100
1.90289503	71.96265000	1.82500700
1.90789503	71.96265000	1.80059200
1.91289503	74.51093000	2.81991000
1.91789503	75.68590000	3.28989500
1.92289502	75.45701000	3.19834000
1.92789502	75.45701000	3.17392500
1.93289502	75.68590000	3.17392500
1.93789502	74.57197000	3.17392500
1.94289502	72.25256000	3.17392500
1.94789502	71.13864000	3.14951000
1.95289502	71.36753000	3.05795500
1.95789502	71.42857000	3.52794000
1.96289502	71.42857000	4.54725700
1.96789502	71.42857000	4.54725700
1.97289502	71.42857000	3.52794000
1.97789502	71.42857000	3.05795500
1.98289502	71.42857000	3.14951000
1.98789502	71.42857000	3.17392500
1.99289502	71.42857000	3.17392500
1.99789502	71.42857000	3.17392500
2.00289502	71.42857000	3.17392500
2.00789502	71.42857000	3.17392500
2.01289502	71.42857000	3.17392500
2.01789502	71.42857000	3.17392500
2.02289502	71.42857000	3.17392500
2.02789502	71.48961000	3.17392500
2.03289502	71.71850000	3.17392500
2.03789502	70.60457000	3.17392500
2.04289502	68.26991000	3.17392500
2.04789502	67.15598000	3.17392500
2.05289502	67.38486000	3.17392500
2.05789502	67.44590000	3.14951000
2.06289502	67.44590000	3.05795500
2.06789502	67.44590000	3.52794000
2.07289502	67.44590000	4.54725700
2.07789502	67.44590000	4.52284300
2.08289502	67.44590000	3.41196900
2.08789502	67.44590000	3.38755500
2.09289502	67.44590000	4.40687300
2.09789502	67.44590000	4.90127200
2.10289502	67.44590000	4.90127200
2.10789502	67.44590000	4.43128700
2.11289502	67.44590000	3.50352500
2.11789502	67.44590000	3.05795500
2.12289502	67.44590000	3.14951000
2.12789502	67.44590000	3.19834000
2.13289502	67.44590000	3.28989500
2.13789502	67.44590000	2.81991000
2.14289502	67.44590000	1.80059200
2.14789502	67.44590000	1.80059200
2.15289502	67.44590000	2.81991000
2.15789502	67.50694000	3.31431000
2.16289502	67.73582000	3.31431000
2.16789502	66.56087000	2.84432500
2.17289502	64.01257000	1.91656200
2.17789502	64.01257000	1.44657700
2.18289502	66.56087000	1.44657700
2.18789502	67.79687000	1.91656200
2.19289502	67.79687000	2.84432500
2.19789502	66.62190000	3.28989500
2.20289502	64.30249000	3.19834000
2.20789502	63.18857000	3.17392500
2.21289502	63.41746000	3.17392500
2.21789502	63.47850000	3.14951000
2.22289502	63.47850000	3.05795500
2.22789502	63.53953000	3.50352500
2.23289502	63.76842000	4.43128700
2.23789502	62.59346000	4.87685800
2.24289502	60.04517000	4.78530200
2.24789502	60.04517000	4.78530200
2.25289502	62.59346000	4.87685800
2.25789502	63.76842000	4.43128700
2.26289502	63.53953000	3.50352500
2.26789502	63.47850000	3.03354000
2.27289502	63.47850000	3.03354000
2.27789502	63.53953000	3.52794000
2.28289502	63.76842000	4.54725700
2.28789502	62.65450000	4.54725700
2.29289502	60.33509000	3.52794000
2.29789502	59.22116000	3.03354000
2.30289502	59.45005000	3.03354000
2.30789502	59.51109000	3.52794000
2.31289502	59.51109000	4.54725700
2.31789502	59.51109000	4.54725700
2.32289502	59.51109000	3.52794000
2.32789502	59.51109000	3.05795500
2.33289502	59.51109000	3.14951000
2.33789502	59.51109000	3.17392500
2.34289502	59.51109000	3.17392500
2.34789502	59.51109000	3.14951000
2.35289502	59.51109000	3.05795500
2.35789502	59.51109000	3.50352500
2.36289502	59.51109000	4.43128700
2.36789502	59.51109000	4.87685800
2.37289502	59.51109000	4.78530200
2.37789502	59.51109000	4.76088700
2.38289502	59.51109000	4.76088700
2.38789502	59.51109000	4.76088700
2.39289502	59.51109000	4.76088700
2.39789502	59.51109000	4.78530200
2.40289502	59.51109000	4.87685800
2.40789502	59.57213000	4.40687300
2.41289502	59.80102000	3.38755500
2.41789502	58.68709000	3.41196900
2.42289502	56.36768000	4.52284300
2.42789502	55.25376000	4.54725700
2.43289502	55.48264000	3.52794000
2.43789502	55.54368000	3.05795500
2.44289502	55.54368000	3.14951000
2.44789502	55.54368000	3.17392500
2.45289502	55.54368000	3.17392500
2.45789502	55.54368000	3.19834000
2.46289502	55.54368000	3.28989500
2.46789502	55.54368000	2.81991000
2.47289502	55.54368000	1.80059200
2.47789502	55.54368000	1.80059200
2.48289502	55.54368000	2.81991000
2.48789502	55.54368000	3.31431000
2.49289502	55.54368000	3.31431000
2.49789502	55.54368000	2.84432500
2.50289502	55.54368000	1.91656200
2.50789502	55.54368000	1.47099200
2.51289502	55.54368000	1.56254800
2.51789502	55.54368000	1.58696200
2.52289502	55.54368000	1.58696200
2.52789502	55.54368000	1.56254800
2.53289502	55.54368000	1.47099200
2.53789502	55.54368000	1.94097700
2.54289502	55.54368000	2.96029500
2.54789502	55.60472000	2.96029500
2.55289502	55.83361000	1.94097700
2.55789502	54.71968000	1.47099200
2.56289502	52.40028000	1.56254800
2.56789502	51.28635000	1.58696200
2.57289502	51.51524000	1.58696200
2.57789502	51.57627000	1.58696200
2.58289502	51.57627000	1.58696200
2.58789502	51.57627000	1.58696200
2.59289502	51.57627000	1.58696200
2.59789502	51.57627000	1.58696200
2.60289502	51.57627000	1.58696200
2.60789502	51.57627000	1.58696200
2.61289502	51.57627000	1.58696200
2.61789502	51.57627000	1.58696200
2.62289502	51.57627000	1.58696200
2.62789502	51.57627000	1.56254800
2.63289502	51.57627000	1.47099200
2.63789502	51.57627000	1.91656200
2.64289502	51.57627000	2.84432500
2.64789502	51.57627000	3.28989500
2.65289502	51.57627000	3.19834000
2.65789502	51.57627000	3.17392500
2.66289502	51.57627000	3.17392500
2.66789502	51.57627000	3.14951000
2.67289502	51.57627000	3.05795500
2.67789502	51.57627000	3.52794000
2.68289502	51.57627000	4.54725700
2.68789502	51.63731000	4.52284300
2.69289502	51.86620000	3.41196900
2.69789502	50.69124000	3.41196900
2.70289502	48.14294000	4.52284300
2.70789502	48.20398000	4.54725700
2.71289502	50.98117000	3.52794000
2.71789502	51.04220000	3.05795500
2.72289502	48.49391000	3.14951000
2.72789502	47.31895000	3.17392500
2.73289502	47.54784000	3.17392500
2.73789502	47.60887000	3.17392500
2.74289502	47.60887000	3.17392500
2.74789502	47.60887000	3.17392500
2.75289502	47.60887000	3.17392500
2.75789502	47.60887000	3.19834000
2.76289502	47.60887000	3.28989500
2.76789502	47.60887000	2.84432500
2.77289502	47.60887000	1.91656200
2.77789502	47.60887000	1.47099200
2.78289502	47.60887000	1.56254800
2.78789502	47.60887000	1.58696200
2.79289502	47.60887000	1.58696200
2.79789502	47.60887000	1.58696200
2.80289502	47.60887000	1.58696200
2.80789502	47.60887000	1.58696200
2.81289502	47.60887000	1.58696200
2.81789502	47.60887000	1.58696200
2.82289502	47.60887000	1.58696200
2.82789502	47.60887000	1.58696200
2.83289502	47.60887000	1.58696200
2.83789502	47.60887000	1.58696200
2.84289502	47.60887000	1.58696200
2.84789502	47.60887000	1.58696200
2.85289502	47.60887000	1.58696200
2.85789502	47.66991000	1.58696200
2.86289502	47.89880000	1.58696200
2.86789502	46.78487000	1.58696200
2.87289502	44.46547000	1.58696200
2.87789502	43.29050000	1.56254800
2.88289502	43.29050000	1.47099200
2.88789502	44.52650000	1.91656200
2.89289502	47.07480000	2.84432500
2.89789502	47.01376000	3.31431000
2.90289502	44.23658000	3.31431000
2.90789502	44.23658000	2.81991000
2.91289502	47.01376000	1.80059200
2.91789502	47.07480000	1.80059200
2.92289502	44.52650000	2.81991000
2.92789502	43.35154000	3.31431000
2.93289502	43.58043000	3.31431000
2.93789502	43.64147000	2.81991000
2.94289502	43.64147000	1.80059200
2.94789502	43.64147000	1.80059200
2.95289502	43.64147000	2.81991000
2.95789502	43.64147000	3.28989500
2.96289502	43.64147000	3.19834000
2.96789502	43.64147000	3.17392500
2.97289502	43.64147000	3.17392500
2.97789502	43.64147000	3.17392500
2.98289502	43.64147000	3.17392500
2.98789502	43.64147000	3.17392500
2.99289502	43.64147000	3.17392500
2.99789502	43.64147000	3.17392500
3.00289502	43.64147000	3.17392500
3.00789502	43.64147000	3.17392500
3.01289502	43.64147000	3.17392500
3.01789502	43.64147000	3.17392500
3.02289502	43.64147000	3.17392500
3.02789502	43.64147000	3.17392500
3.03289502	43.64147000	3.17392500
3.03789502	43.64147000	3.17392500
3.04289502	43.64147000	3.17392500
3.04789502	43.70250000	3.17392500
3.05289502	43.93139000	3.17392500
3.05789502	42.75643000	3.17392500
3.06289502	40.20813000	3.17392500
3.06789502	40.26917000	3.17392500
3.07289502	43.04636000	3.17392500
3.07789502	43.10739000	3.22275400
3.08289502	40.55910000	3.40586500
3.08789502	39.38414000	2.49031000
3.09289502	39.61302000	0.54322950
3.09789502	39.67406000	0.09765923
3.10289502	39.67406000	1.20853300
3.10789502	39.67406000	1.70293300
3.11289502	39.67406000	1.61137700
3.11789502	39.67406000	1.56254800
3.12289502	39.67406000	1.47099200
3.12789502	39.67406000	1.94097700
3.13289502	39.67406000	2.96029500
3.13789502	39.67406000	2.96029500
3.14289502	39.67406000	1.94097700
3.14789502	39.67406000	1.47099200
3.15289502	39.67406000	1.56254800
3.15789502	39.67406000	1.56254800
3.16289502	39.67406000	1.47099200
3.16789502	39.67406000	1.91656200
3.17289502	39.67406000	2.84432500
3.17789502	39.67406000	3.31431000
3.18289502	39.67406000	3.31431000
3.18789502	39.67406000	2.84432500
3.19289502	39.67406000	1.91656200
3.19789502	39.67406000	1.47099200
3.20289502	39.67406000	1.56254800
3.20789502	39.67406000	1.58696200
3.21289502	39.67406000	1.58696200
3.21789502	39.67406000	1.56254800
3.22289502	39.67406000	1.47099200
3.22789502	39.67406000	1.91656200
3.23289502	39.67406000	2.84432500
3.23789502	39.67406000	3.31431000
3.24289502	39.67406000	3.31431000
3.24789502	39.67406000	2.81991000
3.25289502	39.67406000	1.80059200
3.25789502	39.67406000	1.80059200
3.26289502	39.67406000	2.81991000
3.26789502	39.73510000	3.28989500
3.27289502	39.96399000	3.19834000
3.27789502	38.78902000	3.17392500
3.28289502	36.24073000	3.17392500
3.28789502	36.24073000	3.14951000
3.29289502	38.78902000	3.05795500
3.29789502	40.02502000	3.50352500
3.30289502	40.02502000	4.43128700
3.30789502	38.85006000	4.90127200
3.31289502	36.53065000	4.90127200
3.31789502	35.41673000	4.43128700
3.32289502	35.64562000	3.50352500
3.32789502	35.70665000	3.08237000
3.33289502	35.70665000	3.26548100
3.33789502	35.70665000	2.81991000
3.34289502	35.70665000	1.80059200
3.34789502	35.70665000	1.82500700
3.35289502	35.70665000	2.93588100
3.35789502	35.70665000	2.93588100
3.36289502	35.70665000	1.82500700
3.36789502	35.70665000	1.82500700
3.37289502	35.70665000	2.93588100
3.37789502	35.70665000	2.96029500
3.38289502	35.70665000	1.94097700
3.38789502	35.70665000	1.47099200
3.39289502	35.70665000	1.56254800
3.39789502	35.70665000	1.58696200
3.40289502	35.70665000	1.58696200
3.40789502	35.70665000	1.58696200
3.41289502	35.70665000	1.58696200
3.41789502	35.70665000	1.58696200
3.42289502	35.70665000	1.58696200
3.42789502	35.70665000	1.58696200
3.43289502	35.70665000	1.58696200
3.43789502	35.70665000	1.58696200
3.44289502	35.70665000	1.58696200
3.44789502	35.70665000	1.56254800
3.45289502	35.70665000	1.47099200
3.45789502	35.70665000	1.94097700
3.46289502	35.70665000	2.96029500
3.46789502	35.76769000	2.96029500
3.47289502	35.99658000	1.94097700
3.47789502	34.82162000	1.47099200
3.48289502	32.27332000	1.56254800
3.48789502	32.27332000	1.58696200
3.49289502	34.82162000	1.58696200
3.49789502	35.99658000	1.58696200
3.50289502	35.76769000	1.58696200
3.50789502	35.76769000	1.58696200
3.51289502	35.99658000	1.58696200
3.51789502	34.88266000	1.56254800
3.52289502	32.56325000	1.47099200
3.52789502	31.44932000	1.94097700
3.53289502	31.67821000	2.96029500
3.53789502	31.73925000	2.96029500
3.54289502	31.73925000	1.94097700
3.54789502	31.73925000	1.44657700
3.55289502	31.73925000	1.44657700
3.55789502	31.73925000	1.94097700
3.56289502	31.73925000	2.96029500
3.56789501	31.73925000	2.93588100
3.57289501	31.73925000	1.82500700
3.57789501	31.73925000	1.80059200
3.58289501	31.73925000	2.81991000
3.58789501	31.73925000	3.28989500
3.59289501	31.73925000	3.19834000
3.59789501	31.73925000	3.19834000
3.60289501	31.73925000	3.28989500
3.60789501	31.73925000	2.81991000
3.61289501	31.73925000	1.80059200
3.61789501	31.73925000	1.82500700
3.62289501	31.73925000	2.93588100
3.62789501	31.73925000	2.96029500
3.63289501	31.73925000	1.94097700
3.63789501	31.73925000	1.47099200
3.64289501	31.73925000	1.56254800
3.64789501	31.73925000	1.58696200
3.65289501	31.73925000	1.58696200
3.65789501	31.73925000	1.58696200
3.66289501	31.73925000	1.58696200
3.66789501	31.73925000	1.58696200
3.67289501	31.73925000	1.58696200
3.67789501	31.73925000	1.58696200
3.68289501	31.73925000	1.58696200
3.68789501	31.73925000	1.58696200
3.69289501	31.73925000	1.58696200
3.69789501	31.73925000	1.58696200
3.70289501	31.73925000	1.58696200
3.70789501	31.73925000	1.58696200
3.71289501	31.73925000	1.58696200
3.71789501	31.73925000	1.56254800
3.72289501	31.73925000	1.47099200
3.72789501	31.73925000	1.94097700
3.73289501	31.73925000	2.96029500
3.73789501	31.73925000	2.96029500
3.74289501	31.73925000	1.94097700
3.74789501	31.73925000	1.47099200
3.75289501	31.73925000	1.56254800
3.75789501	31.73925000	1.58696200
3.76289501	31.73925000	1.58696200
3.76789501	31.73925000	1.58696200
3.77289501	31.73925000	1.58696200
3.77789501	31.73925000	1.58696200
3.78289501	31.73925000	1.58696200
3.78789501	31.73925000	1.58696200
3.79289501	31.73925000	1.58696200
3.79789501	31.73925000	1.56254800
3.80289501	31.73925000	1.47099200
3.80789501	31.80028000	1.94097700
3.81289501	32.02917000	2.96029500
3.81789501	30.91525000	2.93588100
3.82289501	28.59584000	1.82500700
3.82789501	27.48192000	1.80059200
3.83289501	27.71080000	2.81991000
3.83789501	27.77184000	3.28989500
3.84289501	27.77184000	3.19834000
3.84789501	27.77184000	3.19834000
3.85289501	27.77184000	3.28989500
3.85789501	27.77184000	2.79549500
3.86289501	27.77184000	1.68462200
3.86789501	27.77184000	2.15460700
3.87289501	27.77184000	4.19324400
3.87789501	27.77184000	4.66322800
3.88289501	27.77184000	3.55235400
3.88789501	27.77184000	3.08237000
3.89289501	27.77184000	3.26548100
3.89789501	27.77184000	2.84432500
3.90289501	27.77184000	1.91656200
3.90789501	27.77184000	1.47099200
3.91289501	27.77184000	1.56254800
3.91789501	27.77184000	1.58696200
3.92289501	27.77184000	1.58696200
3.92789501	27.77184000	1.58696200
3.93289501	27.77184000	1.58696200
3.93789501	27.77184000	1.58696200
3.94289501	27.77184000	1.58696200
3.94789501	27.77184000	1.58696200
3.95289501	27.77184000	1.58696200
3.95789501	27.83288000	1.58696200
3.96289501	28.06177000	1.58696200
3.96789501	26.88680000	1.58696200
3.97289501	24.33851000	1.58696200
3.97789501	24.33851000	1.58696200
3.98289501	26.88680000	1.58696200
3.98789501	28.06177000	1.56254800
3.99289501	27.83288000	1.47099200
3.99789501	27.77184000	1.96539200
4.00289501	27.77184000	3.07626600
4.00789501	27.77184000	2.60628100
4.01289501	27.77184000	0.56764430
4.01789501	27.77184000	0.09765923
4.02289501	27.77184000	1.20853300
4.02789501	27.77184000	1.70293300
4.03289501	27.77184000	1.61137700
4.03789501	27.77184000	1.58696200
4.04289501	27.77184000	1.58696200
4.04789501	27.83288000	1.56254800
4.05289501	28.06177000	1.47099200
4.05789501	26.94784000	1.91656200
4.06289501	24.62844000	2.84432500
4.06789501	23.45347000	3.28989500
4.07289501	23.45347000	3.19834000
4.07789501	24.62844000	3.14951000
4.08289501	26.94784000	3.05795500
4.08789501	28.12280000	3.50352500
4.09289501	28.12280000	4.43128700
4.09789501	26.94784000	4.85244300
4.10289501	24.62844000	4.66933200
4.10789501	23.51451000	5.11490200
4.11289501	23.74340000	6.13422100
4.11789501	23.80444000	6.13422100
4.12289501	23.80444000	5.11490200
4.12789501	23.80444000	4.64491700
4.13289501	23.80444000	4.73647300
4.13789501	23.80444000	4.78530200
4.14289501	23.80444000	4.87685800
4.14789501	23.80444000	4.43128700
4.15289501	23.80444000	3.50352500
4.15789501	23.80444000	3.05795500
4.16289501	23.80444000	3.14951000
4.16789501	23.80444000	3.17392500
4.17289501	23.80444000	3.17392500
4.17789501	23.80444000	3.17392500
4.18289501	23.80444000	3.17392500
4.18789501	23.80444000	3.17392500
4.19289501	23.80444000	3.17392500
4.19789501	23.80444000	3.17392500
4.20289501	23.80444000	3.17392500
4.20789501	23.80444000	3.17392500
4.21289501	23.80444000	3.17392500
4.21789501	23.80444000	3.19834000
4.22289501	23.80444000	3.28989500
4.22789501	23.80444000	2.81991000
4.23289501	23.80444000	1.80059200
4.23789501	23.80444000	1.80059200
4.24289501	23.80444000	2.81991000
4.24789501	23.80444000	3.28989500
4.25289501	23.80444000	3.19834000
4.25789501	23.80444000	3.19834000
4.26289501	23.80444000	3.28989500
4.26789501	23.80444000	2.84432500
4.27289501	23.80444000	1.91656200
4.27789501	23.80444000	1.44657700
4.28289501	23.80444000	1.44657700
4.28789501	23.80444000	1.91656200
4.29289501	23.80444000	2.84432500
4.29789501	23.80444000	3.28989500
4.30289501	23.80444000	3.19834000
4.30789501	23.80444000	3.19834000
4.31289501	23.80444000	3.28989500
4.31789501	23.80444000	2.81991000
4.32289501	23.80444000	1.80059200
4.32789501	23.80444000	1.77617700
4.33289501	23.80444000	2.70394000
4.33789501	23.80444000	3.61949500
4.34289501	23.80444000	4.45570200
4.34789501	23.80444000	4.90127200
4.35289501	23.80444000	4.90127200
4.35789501	23.80444000	4.40687300
4.36289501	23.80444000	3.38755500
4.36789501	23.80444000	3.41196900
4.37289501	23.80444000	4.52284300
4.37789501	23.80444000	4.54725700
4.38289501	23.80444000	3.52794000
4.38789501	23.80444000	3.05795500
4.39289501	23.80444000	3.14951000
4.39789501	23.80444000	3.14951000
4.40289501	23.80444000	3.05795500
4.40789501	23.80444000	3.50352500
4.41289501	23.80444000	4.43128700
4.41789501	23.80444000	4.90127200
4.42289501	23.80444000	4.90127200
4.42789501	23.80444000	4.43128700
4.43289501	23.80444000	3.50352500
4.43789501	23.80444000	3.03354000
4.44289501	23.80444000	3.03354000
4.44789501	23.80444000	3.52794000
4.45289501	23.80444000	4.54725700
4.45789501	23.80444000	4.54725700
4.46289501	23.80444000	3.52794000
4.46789501	23.86547000	3.05795500
4.47289501	24.09436000	3.14951000
4.47789501	22.91940000	3.17392500
4.48289501	20.37111000	3.17392500
4.48789501	20.43214000	3.19834000
4.49289501	23.20932000	3.28989500
4.49789501	23.20932000	2.84432500
4.50289501	20.43214000	1.91656200
4.50789501	20.43214000	1.44657700
4.51289501	23.20932000	1.44657700
4.51789501	23.27036000	1.89214800
4.52289501	20.72207000	2.72835500
4.52789501	19.54710000	3.66832500
4.53289501	19.77599000	4.68764300
4.53789501	19.83703000	4.21765800
4.54289501	19.83703000	2.27057700
4.54789501	19.83703000	1.35502200
4.55289501	19.83703000	1.53813300
4.55789501	19.83703000	1.58696200
4.56289501	19.83703000	1.58696200
4.56789501	19.83703000	1.58696200
4.57289501	19.83703000	1.58696200
4.57789501	19.83703000	1.58696200
4.58289501	19.83703000	1.58696200
4.58789501	19.83703000	1.58696200
4.59289501	19.83703000	1.58696200
4.59789501	19.83703000	1.56254800
4.60289501	19.83703000	1.47099200
4.60789501	19.83703000	1.91656200
4.61289501	19.83703000	2.84432500
4.61789501	19.83703000	3.31431000
4.62289501	19.83703000	3.31431000
4.62789501	19.83703000	2.81991000
4.63289501	19.83703000	1.80059200
4.63789501	19.83703000	1.80059200
4.64289501	19.83703000	2.81991000
4.64789501	19.83703000	3.28989500
4.65289501	19.83703000	3.19834000
4.65789501	19.83703000	3.17392500
4.66289501	19.83703000	3.17392500
4.66789501	19.83703000	3.17392500
4.67289501	19.83703000	3.17392500
4.67789501	19.83703000	3.17392500
4.68289501	19.83703000	3.17392500
4.68789501	19.83703000	3.17392500
4.69289501	19.83703000	3.17392500
4.69789501	19.83703000	3.17392500
4.70289501	19.83703000	3.17392500
4.70789501	19.83703000	3.14951000
4.71289501	19.83703000	3.05795500
4.71789501	19.83703000	3.52794000
4.72289501	19.83703000	4.54725700
4.72789501	19.83703000	4.54725700
4.73289501	19.83703000	3.52794000
4.73789501	19.83703000	3.05795500
4.74289501	19.83703000	3.14951000
4.74789501	19.83703000	3.14951000
4.75289501	19.83703000	3.05795500
4.75789501	19.83703000	3.50352500
4.76289501	19.83703000	4.43128700
4.76789501	19.83703000	4.90127200
4.77289501	19.83703000	4.90127200
4.77789501	19.83703000	4.40687300
4.78289501	19.83703000	3.38755500
4.78789501	19.89807000	3.41196900
4.79289501	20.12696000	4.52284300
4.79789501	18.95199000	4.54725700
4.80289501	16.40370000	3.52794000
4.80789501	16.40370000	3.05795500
4.81289501	18.95199000	3.14951000
4.81789501	20.12696000	3.19834000
4.82289501	19.89807000	3.28989500
4.82789501	19.83703000	2.81991000
4.83289501	19.83703000	1.80059200
4.83789501	19.89807000	1.82500700
4.84289501	20.12696000	2.93588100
4.84789501	19.01303000	2.96029500
4.85289501	16.69362000	1.94097700
4.85789501	15.51866000	1.44657700
4.86289501	15.51866000	1.44657700
4.86789501	16.69362000	1.94097700
4.87289501	19.01303000	2.96029500
4.87789501	20.12696000	2.93588100
4.88289501	19.89807000	1.82500700
4.88789501	19.83703000	1.80059200
4.89289501	19.83703000	2.81991000
4.89789501	19.83703000	3.28989500
4.90289501	19.83703000	3.19834000
4.90789501	19.83703000	3.14951000
4.91289501	19.83703000	3.05795500
4.91789501	19.83703000	3.50352500
4.92289501	19.83703000	4.43128700
4.92789501	19.89807000	4.87685800
4.93289501	20.12696000	4.78530200
4.93789501	18.95199000	4.76088700
4.94289501	16.40370000	4.76088700
4.94789501	16.40370000	4.76088700
4.95289501	18.95199000	4.76088700
4.95789501	20.12696000	4.76088700
4.96289501	19.89807000	4.76088700
4.96789501	19.89807000	4.76088700
4.97289501	20.12696000	4.76088700
4.97789501	19.01303000	4.78530200
4.98289501	16.69362000	4.87685800
4.98789501	15.57970000	4.40687300
4.99289501	15.80859000	3.38755500
4.99789501	15.80859000	3.38755500
5.00289501	15.57970000	4.40687300
5.00789501	16.75466000	4.85244300
5.01289501	19.30296000	4.66933200
5.01789501	19.30296000	5.06607200
5.02289501	16.75466000	5.90228000
5.02789501	15.57970000	6.84224900
5.03289501	15.80859000	7.86156800
5.03789501	15.86962000	7.36716800
5.04289501	15.86962000	5.32853200
5.04789501	15.86962000	4.88296100
5.05289501	15.86962000	6.08539100
5.05789501	15.86962000	6.13422100
5.06289501	15.86962000	5.11490200
5.06789501	15.86962000	4.62050200
5.07289501	15.86962000	4.62050200
5.07789501	15.86962000	5.09048700
5.08289501	15.86962000	6.01825000
5.08789501	15.86962000	6.46382000
5.09289501	15.86962000	6.37226500
5.09789501	15.86962000	6.37226500
5.10289501	15.86962000	6.46382000
5.10789501	15.86962000	5.99383500
5.11289501	15.86962000	4.97451700
5.11789501	15.86962000	4.99893200
5.12289501	15.86962000	6.10980600
5.12789501	15.86962000	6.10980600
5.13289501	15.86962000	4.99893200
5.13789501	15.86962000	5.02334600
5.14289501	15.86962000	6.22577600
5.14789501	15.86962000	5.80462000
5.15289501	15.86962000	3.85753900
5.15789501	15.86962000	2.94198400
5.16289501	15.86962000	3.12509500
5.16789501	15.86962000	3.14951000
5.17289501	15.86962000	3.05795500
5.17789501	15.86962000	3.52794000
5.18289501	15.86962000	4.54725700
5.18789501	15.86962000	4.52284300
5.19289501	15.86962000	3.41196900
5.19789501	15.86962000	3.38755500
5.20289501	15.86962000	4.40687300
5.20789501	15.86962000	4.87685800
5.21289500	15.86962000	4.78530200
5.21789500	15.86962000	4.76088700
5.22289500	15.86962000	4.76088700
5.22789500	15.86962000	4.76088700
5.23289500	15.86962000	4.76088700
5.23789500	15.86962000	4.76088700
5.24289500	15.86962000	4.76088700
5.24789500	15.86962000	4.78530200
5.25289500	15.86962000	4.87685800
5.25789500	15.86962000	4.43128700
5.26289500	15.86962000	3.50352500
5.26789500	15.86962000	3.05795500
5.27289500	15.86962000	3.14951000
5.27789500	15.86962000	3.17392500
5.28289500	15.86962000	3.17392500
5.28789500	15.86962000	3.17392500
5.29289500	15.86962000	3.17392500
5.29789500	15.86962000	3.14951000
5.30289500	15.86962000	3.05795500
5.30789500	15.86962000	3.52794000
5.31289500	15.86962000	4.54725700
5.31789500	15.86962000	4.52284300
5.32289500	15.86962000	3.41196900
5.32789500	15.86962000	3.38755500
5.33289500	15.86962000	4.40687300
5.33789500	15.86962000	4.87685800
5.34289500	15.86962000	4.78530200
5.34789500	15.86962000	4.76088700
5.35289500	15.86962000	4.76088700
5.35789500	15.86962000	4.76088700
5.36289500	15.86962000	4.76088700
5.36789500	15.86962000	4.78530200
5.37289500	15.86962000	4.87685800
5.37789500	15.86962000	4.43128700
5.38289500	15.86962000	3.50352500
5.38789500	15.86962000	3.05795500
5.39289500	15.86962000	3.14951000
5.39789500	15.86962000	3.17392500
5.40289500	15.86962000	3.17392500
5.40789500	15.86962000	3.19834000
5.41289500	15.86962000	3.28989500
5.41789500	15.93066000	2.84432500
5.42289500	16.15955000	1.91656200
5.42789500	14.98459000	1.44657700
5.43289500	12.43629000	1.44657700
5.43789500	12.43629000	1.91656200
5.44289500	14.98459000	2.84432500
5.44789500	16.15955000	3.26548100
5.45289500	15.93066000	3.08237000
5.45789500	15.86962000	3.50352500
5.46289500	15.86962000	4.43128700
5.46789500	15.86962000	4.87685800
5.47289500	15.86962000	4.78530200
5.47789500	15.86962000	4.73647300
5.48289500	15.86962000	4.64491700
5.48789500	15.86962000	5.09048700
5.49289500	15.86962000	6.01825000
5.49789500	15.86962000	6.46382000
5.50289500	15.86962000	6.37226500
5.50789500	15.86962000	6.34785000
5.51289500	15.86962000	6.34785000
5.51789500	15.86962000	6.34785000
5.52289500	15.86962000	6.34785000
5.52789500	15.86962000	6.34785000
5.53289500	15.86962000	6.34785000
5.53789500	15.86962000	6.34785000
5.54289500	15.86962000	6.34785000
5.54789500	15.86962000	6.34785000
5.55289500	15.86962000	6.34785000
5.55789500	15.86962000	6.34785000
5.56289500	15.86962000	6.34785000
5.56789500	15.86962000	6.37226500
5.57289500	15.86962000	6.46382000
5.57789500	15.86962000	6.01825000
5.58289500	15.86962000	5.09048700
5.58789500	15.93066000	4.64491700
5.59289500	16.15955000	4.73647300
5.59789500	15.04562000	4.78530200
5.60289500	12.72622000	4.87685800
5.60789500	11.61229000	4.43128700
5.61289500	11.84118000	3.50352500
5.61789500	11.84118000	3.05795500
5.62289500	11.61229000	3.14951000
5.62789500	12.78725000	3.17392500
5.63289500	15.33555000	3.17392500
5.63789500	15.33555000	3.19834000
5.64289500	12.78725000	3.28989500
5.64789500	11.61229000	2.84432500
5.65289500	11.84118000	1.91656200
5.65789500	11.90222000	1.47099200
5.66289500	11.90222000	1.56254800
5.66789500	11.84118000	1.58696200
5.67289500	11.61229000	1.58696200
5.67789500	12.78725000	1.56254800
5.68289500	15.33555000	1.47099200
5.68789500	15.33555000	1.91656200
5.69289500	12.78725000	2.84432500
5.69789500	11.61229000	3.28989500
5.70289500	11.84118000	3.19834000
5.70789500	11.90222000	3.14951000
5.71289500	11.90222000	3.05795500
5.71789500	11.90222000	3.50352500
5.72289500	11.90222000	4.43128700
5.72789500	11.90222000	4.87685800
5.73289500	11.90222000	4.78530200
5.73789500	11.84118000	4.76088700
5.74289500	11.61229000	4.76088700
5.74789500	12.78725000	4.76088700
5.75289500	15.33555000	4.76088700
5.75789500	15.33555000	4.76088700
5.76289500	12.78725000	4.76088700
5.76789500	11.61229000	4.76088700
5.77289500	11.84118000	4.76088700
5.77789500	11.84118000	4.78530200
5.78289500	11.61229000	4.87685800
5.78789500	12.78725000	4.40687300
5.79289500	15.33555000	3.38755500
5.79789500	15.33555000	3.38755500
5.80289500	12.78725000	4.40687300
5.80789500	11.61229000	4.90127200
5.81289500	11.84118000	4.90127200
5.81789500	11.90222000	4.38245800
5.82289500	11.90222000	3.27158400
5.82789500	11.90222000	3.74156900
5.83289500	11.90222000	5.78020600
5.83789500	11.90222000	6.25019100
5.84289500	11.90222000	5.13931700
5.84789500	11.90222000	4.64491700
5.85289500	11.90222000	4.73647300
5.85789500	11.90222000	4.78530200
5.86289500	11.90222000	4.87685800
5.86789500	11.90222000	4.40687300
5.87289500	11.90222000	3.38755500
5.87789500	11.90222000	3.38755500
5.88289500	11.90222000	4.40687300
5.88789500	11.90222000	4.87685800
5.89289500	11.90222000	4.78530200
5.89789500	11.90222000	4.78530200
5.90289500	11.90222000	4.87685800
5.90789500	11.90222000	4.43128700
5.91289500	11.90222000	3.50352500
5.91789500	11.90222000	3.03354000
5.92289500	11.90222000	3.03354000
5.92789500	11.90222000	3.50352500
5.93289500	11.90222000	4.43128700
5.93789500	11.90222000	4.87685800
5.94289500	11.90222000	4.78530200
5.94789500	11.90222000	4.76088700
5.95289500	11.90222000	4.76088700
5.95789500	11.90222000	4.76088700
5.96289500	11.90222000	4.76088700
5.96789500	11.90222000	4.76088700
5.97289500	11.90222000	4.76088700
5.97789500	11.90222000	4.78530200
5.98289500	11.90222000	4.87685800
5.98789500	11.90222000	4.40687300
5.99289500	11.90222000	3.38755500
5.99789500	11.90222000	3.41196900
6.00289500	11.90222000	4.52284300
6.00789500	11.90222000	4.52284300
6.01289500	11.90222000	3.41196900
6.01789500	11.90222000	3.41196900
6.02289500	11.90222000	4.52284300
6.02789500	11.90222000	4.54725700
6.03289500	11.90222000	3.52794000
6.03789500	11.90222000	3.05795500
6.04289500	11.90222000	3.14951000
6.04789500	11.90222000	3.17392500
6.05289500	11.90222000	3.17392500
6.05789500	11.90222000	3.19834000
6.06289500	11.90222000	3.28989500
6.06789500	11.90222000	2.79549500
6.07289500	11.90222000	1.68462200
6.07789500	11.90222000	2.13019200
6.08289500	11.90222000	4.07727300
6.08789500	11.90222000	4.99282800
6.09289500	11.90222000	4.80971700
6.09789500	11.90222000	4.76088700
6.10289500	11.90222000	4.76088700
6.10789500	11.90222000	4.76088700
6.11289500	11.90222000	4.76088700
6.11789500	11.90222000	4.73647300
6.12289500	11.90222000	4.64491700
6.12789500	11.90222000	5.06607200
6.13289500	11.90222000	5.90228000
6.13789500	11.90222000	6.81783500
6.14289500	11.90222000	7.74559700
6.14789500	11.90222000	7.72118300
6.15289500	11.90222000	6.70186400
6.15789500	11.90222000	6.18305000
6.16289500	11.90222000	6.09149400
6.16789500	11.90222000	6.98263500
6.17289500	11.90222000	8.74660500
6.17789500	11.90222000	10.01617000
6.18289500	11.90222000	10.47395000
6.18789500	11.90222000	12.14637000
6.19289500	11.90222000	14.55122000
6.19789500	11.90222000	17.09647000
6.20289500	11.90222000	19.12290000
6.20789500	11.90222000	22.44331000
6.21289500	11.90222000	26.05060000
6.21789500	11.90222000	31.63549000
6.22289500	11.90222000	37.92230000
6.22789500	11.90222000	44.32508000
6.23289500	11.90222000	49.31791000
6.23789500	11.90222000	55.64745000
6.24289500	11.90222000	61.65960000
6.24789500	11.90222000	68.48964000
6.25289500	11.90222000	74.50179000
6.25789500	11.90222000	80.90457000
6.26289500	11.90222000	86.17816000
6.26789500	11.90222000	91.21983000
6.27289500	11.90222000	94.63179000
6.27789500	11.90222000	99.27061000
6.28289500	11.90222000	103.89720000
6.28789500	11.90222000	108.62760000
6.29289500	11.90222000	112.42410000
6.29789500	11.90222000	115.81770000
6.30289500	11.90222000	117.94180000
6.30789500	11.90222000	120.03540000
6.31289500	11.90222000	121.51250000
6.31789500	11.90222000	122.78210000
6.32289500	11.90222000	123.52670000
6.32789500	11.90222000	123.92350000
6.33289500	11.90222000	123.83190000
6.33789500	11.90222000	123.85630000
6.34289500	11.90222000	124.03940000
6.34789500	11.90222000	123.19100000
6.35289500	11.90222000	121.53080000
6.35789500	11.90222000	119.78510000
6.36289500	11.90222000	118.30810000
6.36789500	11.90222000	116.61120000
6.37289500	11.90222000	115.13410000
6.37789500	11.90222000	113.46170000
6.38289500	11.90222000	112.07010000
6.38789500	11.90222000	109.97650000
6.39289500	11.90222000	107.75480000
6.39789500	11.90222000	104.76390000
6.40289500	11.90222000	101.71820000
6.40789500	11.90222000	98.27570000
6.41289500	11.90222000	95.22996000
6.41789500	11.90222000	92.26356000
6.42289500	11.90222000	90.13336000
6.42789500	11.90222000	87.61864000
6.43289500	11.90222000	85.39079000
6.43789500	11.90222000	82.85165000
6.44289500	11.90222000	80.62991000
6.44789500	11.90222000	78.09076000
6.45289500	11.90222000	75.86901000
6.45789500	11.90222000	73.32988000
6.46289500	11.90222000	71.10813000
6.46789500	11.90222000	68.54457000
6.47289500	11.90222000	66.23127000
6.47789500	11.90222000	64.11329000
6.48289500	11.90222000	62.72775000
6.48789500	11.90222000	61.05533000
6.49289500	11.90222000	59.57823000
6.49789500	11.90222000	57.85699000
6.50289500	11.90222000	56.28223000
6.50789500	11.90222000	55.05539000
6.51289500	11.90222000	54.59761000
6.51789500	11.90222000	52.90078000
6.52289500	11.90222000	50.40437000
6.52789500	11.90222000	48.18872000
6.53289500	11.90222000	46.62008000
6.53789500	11.90222000	45.86322000
6.54289500	11.90222000	46.33320000
6.54789500	11.90222000	45.05753000
6.55289500	11.90222000	42.37800000
6.55789500	11.90222000	40.60793000
6.56289500	11.90222000	40.05859000
6.56789500	11.90222000	39.25901000
6.57289500	11.90222000	38.51436000
6.57789500	11.90222000	37.64763000
6.58289500	11.90222000	36.81142000
6.58789500	11.90222000	36.43910000
6.59289500	11.90222000	36.71376000
6.59789500	11.90222000	35.84704000
6.60289500	11.90222000	33.99151000
6.60789500	11.90222000	33.12479000
6.61289500	11.90222000	33.39946000
6.61789500	11.90222000	33.02713000
6.62289500	11.90222000	32.19093000
6.62789500	11.90222000	31.29978000
6.63289500	11.90222000	30.46358000
6.63789500	11.90222000	30.06684000
6.64289500	11.90222000	30.24995000
6.64789500	11.90222000	29.87762000
6.65289500	11.90222000	29.13907000
6.65789500	11.90222000	27.76574000
6.66289500	11.90222000	25.91021000
6.66789500	11.90222000	25.51347000
6.67289500	11.90222000	26.71590000
6.67789500	11.90222000	26.76473000
6.68289500	11.90222000	25.74541000
6.68789500	11.96325000	25.29984000
6.69289500	12.19214000	25.48295000
6.69789500	11.01718000	25.08622000
6.70289500	8.46888600	24.25001000
6.70789500	8.46888600	23.35887000
6.71289500	11.01718000	22.52266000
6.71789500	12.19214000	22.10150000
6.72289500	11.96325000	22.19306000
6.72789500	11.90222000	22.21748000
6.73289500	11.90222000	22.21748000
6.73789500	11.96325000	22.24189000
6.74289500	12.19214000	22.33344000
6.74789500	11.07822000	21.86346000
6.75289500	8.75881200	20.84414000
6.75789500	7.64488600	20.86856000
6.76289500	7.87377500	21.97943000
6.76789500	7.93481200	22.02826000
6.77289500	7.93481200	21.10050000
6.77789500	7.87377500	20.18494000
6.78289500	7.64488600	19.34873000
6.78789500	8.81984900	18.92758000
6.79289500	11.36814000	19.01913000
6.79789500	11.30711000	19.06796000
6.80289500	8.52992300	19.15952000
6.80789500	8.52992300	18.68954000
6.81289500	11.30711000	17.67022000
6.81789500	11.30711000	17.69463000
6.82289500	8.52992300	18.80550000
6.82789500	8.52992300	18.80550000
6.83289500	11.30711000	17.69463000
6.83789500	11.36814000	17.69463000
6.84289500	8.81984900	18.80550000
6.84789500	7.58384900	18.85434000
6.85289500	7.58384900	17.92657000
6.85789499	8.75881200	17.03543000
6.86289499	11.07822000	16.29078000
6.86789499	12.19214000	15.42405000
6.87289499	11.96325000	14.58785000
6.87789499	11.96325000	14.14228000
6.88289499	12.19214000	14.14228000
6.88789499	11.07822000	14.61226000
6.89289499	8.75881200	15.54002000
6.89789499	7.58384900	16.01001000
6.90289499	7.58384900	16.01001000
6.90789499	8.81984900	15.54002000
6.91289499	11.36814000	14.61226000
6.91789499	11.30711000	14.14228000
6.92289499	8.52992300	14.14228000
6.92789499	8.46888600	14.61226000
6.93289499	11.01718000	15.54002000
6.93789499	12.25318000	16.01001000
6.94289499	12.25318000	16.01001000
6.94789499	11.07822000	15.54002000
6.95289499	8.75881200	14.61226000
6.95789499	7.58384900	14.16669000
6.96289499	7.58384900	14.25825000
6.96789499	8.75881200	14.30708000
6.97289499	11.07822000	14.39863000
6.97789499	12.25318000	13.92865000
6.98289499	12.25318000	12.90933000
6.98789499	11.07822000	12.90933000
6.99289499	8.75881200	13.92865000
6.99789499	7.64488600	14.42305000
7.00289499	7.87377500	14.42305000
7.00789499	7.87377500	13.95306000
7.01289499	7.64488600	13.02530000
7.01789499	8.75881200	12.57973000
7.02289499	11.07822000	12.67128000
7.02789499	12.25318000	12.69570000
7.03289499	12.25318000	12.69570000
7.03789499	11.07822000	12.69570000
7.04289499	8.75881200	12.69570000
7.04789499	7.64488600	12.69570000
7.05289499	7.87377500	12.69570000
7.05789499	7.87377500	12.69570000
7.06289499	7.64488600	12.69570000
7.06789499	8.75881200	12.69570000
7.07289499	11.07822000	12.69570000
7.07789499	12.19214000	12.69570000
7.08289499	11.96325000	12.69570000
7.08789499	11.96325000	12.69570000
7.09289499	12.19214000	12.69570000
7.09789499	11.07822000	12.69570000
7.10289499	8.75881200	12.69570000
7.10789499	7.64488600	12.69570000
7.11289499	7.87377500	12.69570000
7.11789499	7.93481200	12.69570000
7.12289499	7.93481200	12.69570000
7.12789499	7.93481200	12.69570000
7.13289499	7.93481200	12.69570000
7.13789499	7.93481200	12.69570000
7.14289499	7.93481200	12.69570000
7.14789499	7.93481200	12.67128000
7.15289499	7.93481200	12.57973000
7.15789499	7.87377500	13.02530000
7.16289499	7.64488600	13.95306000
7.16789499	8.75881200	14.39863000
7.17289499	11.07822000	14.30708000
7.17789499	12.25318000	14.30708000
7.18289499	12.25318000	14.39863000
7.18789499	11.07822000	13.95306000
7.19289499	8.75881200	13.02530000
7.19789499	7.58384900	12.57973000
7.20289499	7.58384900	12.67128000
7.20789499	8.81984900	12.69570000
7.21289499	11.36814000	12.69570000
7.21789499	11.30711000	12.69570000
7.22289499	8.52992300	12.69570000
7.22789499	8.52992300	12.69570000
7.23289499	11.30711000	12.69570000
7.23789499	11.36814000	12.72011000
7.24289499	8.81984900	12.81167000
7.24789499	7.64488600	12.36610000
7.25289499	7.87377500	11.43834000
7.25789499	7.93481200	10.99277000
7.26289499	7.93481200	11.08432000
7.26789499	7.93481200	11.10874000
7.27289499	7.93481200	11.10874000
7.27789499	7.93481200	11.10874000
7.28289499	7.93481200	11.10874000
7.28789499	7.93481200	11.10874000
7.29289499	7.93481200	11.10874000
7.29789499	7.93481200	11.10874000
7.30289499	7.93481200	11.10874000
7.30789499	7.93481200	11.10874000
7.31289499	7.93481200	11.10874000
7.31789499	7.93481200	11.10874000
7.32289499	7.93481200	11.10874000
7.32789499	7.93481200	11.10874000
7.33289499	7.93481200	11.10874000
7.33789499	7.93481200	11.10874000
7.34289499	7.93481200	11.10874000
7.34789499	7.93481200	11.13315000
7.35289499	7.93481200	11.22471000
7.35789499	7.93481200	10.77914000
7.36289499	7.93481200	9.85137500
7.36789499	7.93481200	9.40580500
7.37289499	7.93481200	9.49735900
7.37789499	7.93481200	9.52177400
7.38289499	7.93481200	9.52177400
7.38789499	7.93481200	9.52177400
7.39289499	7.93481200	9.52177400
7.39789499	7.93481200	9.52177400
7.40289499	7.93481200	9.52177400
7.40789499	7.93481200	9.52177400
7.41289499	7.93481200	9.52177400
7.41789499	7.93481200	9.52177400
7.42289499	7.93481200	9.52177400
7.42789499	7.93481200	9.52177400
7.43289499	7.93481200	9.52177400
7.43789499	7.93481200	9.52177400
7.44289499	7.93481200	9.52177400
7.44789499	7.93481200	9.54619000
7.45289499	7.93481200	9.63774600
7.45789499	7.93481200	9.16776000
7.46289499	7.93481200	8.14844100
7.46789499	7.93481200	8.14844100
7.47289499	7.93481200	9.16776000
7.47789499	7.93481200	9.63774600
7.48289499	7.93481200	9.54619000
7.48789499	7.93481200	9.52177400
7.49289499	7.93481200	9.52177400
7.49789499	7.93481200	9.52177400
7.50289499	7.93481200	9.52177400
7.50789499	7.93481200	9.54619000
7.51289499	7.93481200	9.63774600
7.51789499	7.93481200	9.16776000
7.52289499	7.93481200	8.14844100
7.52789499	7.93481200	8.17285700
7.53289499	7.93481200	9.28373100
7.53789499	7.93481200	9.30814500
7.54289499	7.93481200	8.28882700
7.54789499	7.93481200	7.79442700
7.55289499	7.93481200	7.79442700
7.55789499	7.93481200	8.28882700
7.56289499	7.93481200	9.30814500
7.56789499	7.93481200	9.30814500
7.57289499	7.93481200	8.28882700
7.57789499	7.93481200	7.79442700
7.58289499	7.93481200	7.79442700
7.58789499	7.93481200	8.26441300
7.59289499	7.93481200	9.19217500
7.59789499	7.93481200	9.66216000
7.60289499	7.93481200	9.66216000
7.60789499	7.93481200	9.19217500
7.61289499	7.93481200	8.26441300
7.61789499	7.93481200	7.81884200
7.62289499	7.93481200	7.91039800
7.62789499	7.93481200	7.93481200
7.63289499	7.93481200	7.93481200
7.63789499	7.93481200	7.95922800
7.64289499	7.93481200	8.05078300
7.64789499	7.93481200	7.58079800
7.65289499	7.93481200	6.56148000
7.65789499	7.93481200	6.56148000
7.66289499	7.93481200	7.58079800
7.66789499	7.93481200	8.07519700
7.67289499	7.93481200	8.07519700
7.67789499	7.93481200	7.58079800
7.68289499	7.93481200	6.56148000
7.68789499	7.93481200	6.56148000
7.69289499	7.93481200	7.58079800
7.69789499	7.93481200	8.05078300
7.70289499	7.93481200	7.95922800
7.70789499	7.93481200	7.93481200
7.71289499	7.93481200	7.93481200
7.71789499	7.93481200	7.93481200
7.72289499	7.93481200	7.93481200
7.72789499	7.93481200	7.93481200
7.73289499	7.93481200	7.93481200
7.73789499	7.93481200	7.93481200
7.74289499	7.93481200	7.93481200
7.74789499	7.93481200	7.93481200
7.75289499	7.93481200	7.93481200
7.75789499	7.93481200	7.93481200
7.76289499	7.93481200	7.93481200
7.76789499	7.93481200	7.93481200
7.77289499	7.93481200	7.93481200
7.77789499	7.93481200	7.93481200
7.78289499	7.93481200	7.93481200
7.78789499	7.93481200	7.91039800
7.79289499	7.93481200	7.81884200
7.79789499	7.93481200	8.28882700
7.80289499	7.93481200	9.30814500
7.80789499	7.93481200	9.28373100
7.81289499	7.93481200	8.17285700
7.81789499	7.93481200	8.14844100
7.82289499	7.93481200	9.16776000
7.82789499	7.93481200	9.63774600
7.83289499	7.93481200	9.54619000
7.83789499	7.93481200	9.52177400
7.84289499	7.93481200	9.52177400
7.84789499	7.93481200	9.54619000
7.85289499	7.93481200	9.63774600
7.85789499	7.93481200	9.19217500
7.86289499	7.93481200	8.26441300
7.86789499	7.93481200	7.81884200
7.87289499	7.93481200	7.91039800
7.87789499	7.93481200	7.93481200
7.88289499	7.93481200	7.93481200
7.88789499	7.93481200	7.93481200
7.89289499	7.93481200	7.93481200
7.89789499	7.93481200	7.93481200
7.90289499	7.93481200	7.93481200
7.90789499	7.93481200	7.93481200
7.91289499	7.93481200	7.93481200
7.91789499	7.93481200	7.93481200
7.92289499	7.93481200	7.93481200
7.92789499	7.93481200	7.93481200
7.93289499	7.93481200	7.93481200
7.93789499	7.93481200	7.93481200
7.94289499	7.93481200	7.93481200
7.94789499	7.93481200	7.93481200
7.95289499	7.93481200	7.93481200
7.95789499	7.93481200	7.95922800
7.96289499	7.93481200	8.05078300
7.96789499	7.93481200	7.60521200
7.97289499	7.93481200	6.67745000
7.97789499	7.93481200	6.23187900
7.98289499	7.93481200	6.32343500
7.98789499	7.93481200	6.32343500
7.99289499	7.93481200	6.23187900
7.99789499	7.93481200	6.67745000
8.00289499	7.93481200	7.60521200
8.00789499	7.93481200	8.07519700
8.01289499	7.93481200	8.07519700
8.01789499	7.93481200	7.60521200
8.02289499	7.93481200	6.67745000
8.02789499	7.93481200	6.23187900
8.03289499	7.93481200	6.32343500
8.03789499	7.93481200	6.34785000
8.04289499	7.93481200	6.34785000
8.04789499	7.93481200	6.32343500
8.05289499	7.93481200	6.23187900
8.05789499	7.93481200	6.70186400
8.06289499	7.93481200	7.72118300
8.06789499	7.93481200	7.72118300
8.07289499	7.93481200	6.70186400
8.07789499	7.93481200	6.20746500
8.08289499	7.93481200	6.20746500
8.08789499	7.93481200	6.70186400
8.09289499	7.93481200	7.72118300
8.09789499	7.93481200	7.72118300
8.10289499	7.93481200	6.70186400
8.10789499	7.93481200	6.23187900
8.11289499	7.93481200	6.32343500
8.11789499	7.93481200	6.32343500
8.12289499	7.93481200	6.23187900
8.12789499	7.93481200	6.67745000
8.13289499	7.93481200	7.60521200
8.13789499	7.93481200	8.05078300
8.14289499	7.93481200	7.95922800
8.14789499	7.93481200	7.93481200
8.15289499	7.93481200	7.93481200
8.15789499	7.93481200	7.93481200
8.16289499	7.93481200	7.93481200
8.16789499	7.93481200	7.93481200
8.17289499	7.93481200	7.93481200
8.17789499	7.93481200	7.93481200
8.18289499	7.93481200	7.93481200
8.18789499	7.93481200	7.95922800
8.19289499	7.93481200	8.05078300
8.19789499	7.93481200	7.60521200
8.20289499	7.93481200	6.67745000
8.20789499	7.93481200	6.23187900
8.21289499	7.93481200	6.32343500
8.21789499	7.93481200	6.37226500
8.22289499	7.93481200	6.46382000
8.22789499	7.93481200	5.99383500
8.23289499	7.93481200	4.97451700
8.23789499	7.93481200	4.97451700
8.24289499	7.93481200	5.99383500
8.24789499	7.93481200	6.46382000
8.25289499	7.93481200	6.37226500
8.25789499	7.93481200	6.34785000
8.26289499	7.93481200	6.34785000
8.26789499	7.93481200	6.34785000
8.27289499	7.93481200	6.34785000
8.27789499	7.93481200	6.34785000
8.28289499	7.93481200	6.34785000
8.28789499	7.93481200	6.34785000
8.29289499	7.93481200	6.34785000
8.29789499	7.93481200	6.34785000
8.30289499	7.93481200	6.34785000
8.30789499	7.93481200	6.32343500
8.31289499	7.93481200	6.23187900
8.31789499	7.93481200	6.67745000
8.32289499	7.93481200	7.60521200
8.32789499	7.93481200	8.07519700
8.33289499	7.93481200	8.07519700
8.33789499	7.93481200	7.55638300
8.34289499	7.93481200	6.44550900
8.34789499	7.93481200	6.93990900
8.35289499	7.93481200	9.07010100
8.35789499	7.93481200	9.07010100
8.36289499	7.93481200	6.93990900
8.36789499	7.93481200	6.44550900
8.37289499	7.93481200	7.55638300
8.37789499	7.93481200	8.07519700
8.38289499	7.93481200	8.07519700
8.38789499	7.93481200	7.58079800
8.39289499	7.93481200	6.56148000
8.39789499	7.93481200	6.56148000
8.40289499	7.93481200	7.58079800
8.40789499	7.93481200	8.05078300
8.41289499	7.93481200	7.95922800
8.41789499	7.93481200	7.95922800
8.42289499	7.93481200	8.05078300
8.42789499	7.93481200	7.58079800
8.43289499	7.93481200	6.56148000
8.43789499	7.93481200	6.58589400
8.44289499	7.93481200	7.69676800
8.44789499	7.93481200	7.69676800
8.45289499	7.93481200	6.58589400
8.45789499	7.93481200	6.58589400
8.46289499	7.93481200	7.69676800
8.46789499	7.93481200	7.69676800
8.47289499	7.93481200	6.58589400
8.47789499	7.99584900	6.56148000
8.48289499	8.22473800	7.58079800
8.48789499	7.04977500	8.07519700
8.49289499	4.50148000	8.07519700
8.49789499	4.50148000	7.58079800
8.50289498	7.04977500	6.56148000
8.50789498	8.22473800	6.56148000
8.51289498	7.99584900	7.58079800
8.51789498	7.93481200	8.05078300
8.52289498	7.93481200	7.95922800
8.52789498	7.93481200	7.95922800
8.53289498	7.93481200	8.05078300
8.53789498	7.93481200	7.60521200
8.54289498	7.93481200	6.67745000
8.54789498	7.99584900	6.23187900
8.55289498	8.22473800	6.32343500
8.55789498	7.04977500	6.34785000
8.56289498	4.50148000	6.34785000
8.56789498	4.50148000	6.34785000
8.57289498	7.04977500	6.34785000
8.57789498	8.22473800	6.32343500
8.58289498	7.99584900	6.23187900
8.58789498	7.99584900	6.70186400
8.59289498	8.22473800	7.72118300
8.59789498	7.11081200	7.69676800
8.60289498	4.79140600	6.58589400
8.60789498	3.61644300	6.56148000
8.61289498	3.61644300	7.58079800
8.61789498	4.79140600	8.05078300
8.62289498	7.11081200	7.95922800
8.62789498	8.22473800	7.93481200
8.63289498	7.99584900	7.93481200
8.63789498	7.99584900	7.93481200
8.64289498	8.22473800	7.93481200
8.64789498	7.04977500	7.95922800
8.65289498	4.50148000	8.05078300
8.65789498	4.50148000	7.58079800
8.66289498	7.04977500	6.56148000
8.66789498	8.22473800	6.56148000
8.67289498	7.99584900	7.58079800
8.67789498	7.93481200	8.05078300
8.68289498	7.93481200	7.95922800
8.68789498	7.93481200	7.95922800
8.69289498	7.93481200	8.05078300
8.69789498	7.93481200	7.58079800
8.70289498	7.93481200	6.56148000
8.70789498	7.93481200	6.58589400
8.71289498	7.93481200	7.69676800
8.71789498	7.93481200	7.69676800
8.72289498	7.93481200	6.58589400
8.72789498	7.93481200	6.56148000
8.73289498	7.93481200	7.58079800
8.73789498	7.93481200	8.05078300
8.74289498	7.93481200	7.95922800
8.74789498	7.99584900	7.93481200
8.75289498	8.22473800	7.93481200
8.75789498	7.04977500	7.93481200
8.76289498	4.50148000	7.93481200
8.76789498	4.50148000	7.93481200
8.77289498	7.04977500	7.93481200
8.77789498	8.22473800	7.93481200
8.78289498	7.99584900	7.93481200
8.78789498	7.93481200	7.93481200
8.79289498	7.93481200	7.93481200
8.79789498	7.93481200	7.93481200
8.80289498	7.93481200	7.93481200
8.80789498	7.93481200	7.95922800
8.81289498	7.93481200	8.05078300
8.81789498	7.93481200	7.58079800
8.82289498	7.93481200	6.56148000
8.82789498	7.93481200	6.56148000
8.83289498	7.93481200	7.58079800
8.83789498	7.93481200	8.05078300
8.84289498	7.93481200	7.95922800
8.84789498	7.93481200	7.95922800
8.85289498	7.93481200	8.05078300
8.85789498	7.93481200	7.60521200
8.86289498	7.93481200	6.67745000
8.86789498	7.93481200	6.23187900
8.87289498	7.93481200	6.32343500
8.87789498	7.99584900	6.34785000
8.88289498	8.22473800	6.34785000
8.88789498	7.04977500	6.34785000
8.89289498	4.50148000	6.34785000
8.89789498	4.50148000	6.34785000
8.90289498	7.04977500	6.34785000
8.90789498	8.22473800	6.32343500
8.91289498	7.99584900	6.23187900
8.91789498	7.99584900	6.70186400
8.92289498	8.22473800	7.72118300
8.92789498	7.11081200	7.69676800
8.93289498	4.79140600	6.58589400
8.93789498	3.61644300	6.58589400
8.94289498	3.61644300	7.69676800
8.94789498	4.79140600	7.69676800
8.95289498	7.11081200	6.58589400
8.95789498	8.22473800	6.56148000
8.96289498	7.99584900	7.58079800
8.96789498	7.93481200	8.05078300
8.97289498	7.93481200	7.95922800
8.97789498	7.93481200	7.95922800
8.98289498	7.93481200	8.05078300
8.98789498	7.93481200	7.58079800
8.99289498	7.93481200	6.56148000
8.99789498	7.93481200	6.58589400
9.00289498	7.93481200	7.69676800
9.00789498	7.93481200	7.69676800
9.01289498	7.93481200	6.58589400
9.01789498	7.93481200	6.58589400
9.02289498	7.93481200	7.69676800
