Time	Channel A	Channel B
(us)	(mV)	(mV)

-1.01243397	0.00000000	3.96740600
-1.00743397	0.00000000	3.96740600
-1.00243397	0.00000000	3.96740600
-0.99743397	0.00000000	3.96740600
-0.99243397	0.00000000	3.96740600
-0.98743397	0.00000000	3.96740600
-0.98243397	0.00000000	3.96740600
-0.97743397	0.00000000	3.96740600
-0.97243397	0.00000000	3.96740600
-0.96743397	0.00000000	3.96740600
-0.96243397	0.00000000	3.96740600
-0.95743397	0.00000000	3.96740600
-0.95243397	0.00000000	3.96740600
-0.94743397	0.00000000	3.96740600
-0.94243397	0.00000000	3.96740600
-0.93743397	0.00000000	3.96740600
-0.93243397	0.00000000	3.96740600
-0.92743397	0.00000000	3.96740600
-0.92243397	0.00000000	3.90636900
-0.91743397	0.00000000	3.67748000
-0.91243397	0.00000000	4.85244300
-0.90743397	0.00000000	7.40073800
-0.90243397	0.00000000	7.33970100
-0.89743397	0.00000000	4.56251700
-0.89243397	0.00000000	4.56251700
-0.88743397	0.00000000	7.33970100
-0.88243397	0.00000000	7.33970100
-0.87743397	0.00000000	4.56251700
-0.87243397	0.00000000	4.50148000
-0.86743397	0.00000000	7.04977500
-0.86243397	0.00000000	8.22473800
-0.85743397	0.00000000	7.99584900
-0.85243397	0.00000000	7.99584900
-0.84743397	0.00000000	8.22473800
-0.84243397	0.00000000	7.11081200
-0.83743397	0.00000000	4.79140600
-0.83243397	-0.06103702	3.67748000
-0.82743397	-0.28992580	3.90636900
-0.82243397	0.88503670	3.96740600
-0.81743397	3.43333200	3.96740600
-0.81243397	3.43333200	3.96740600
-0.80743397	0.88503670	3.96740600
-0.80243397	-0.28992580	3.96740600
-0.79743397	-0.06103702	3.96740600
-0.79243397	0.00000000	3.96740600
-0.78743397	0.00000000	3.96740600
-0.78243397	0.00000000	3.96740600
-0.77743397	0.00000000	3.96740600
-0.77243397	0.00000000	3.96740600
-0.76743397	0.00000000	3.96740600
-0.76243397	0.00000000	3.96740600
-0.75743397	0.00000000	3.96740600
-0.75243397	0.00000000	3.96740600
-0.74743397	0.00000000	3.96740600
-0.74243397	0.00000000	3.96740600
-0.73743397	0.00000000	3.96740600
-0.73243397	0.00000000	3.96740600
-0.72743397	0.00000000	3.96740600
-0.72243397	0.00000000	3.96740600
-0.71743397	0.00000000	3.96740600
-0.71243397	0.00000000	3.96740600
-0.70743397	0.00000000	3.96740600
-0.70243397	0.00000000	3.96740600
-0.69743397	0.00000000	3.96740600
-0.69243397	0.00000000	3.96740600
-0.68743397	0.00000000	3.96740600
-0.68243397	0.00000000	3.96740600
-0.67743397	0.00000000	3.96740600
-0.67243397	-0.06103702	3.96740600
-0.66743397	-0.28992580	3.96740600
-0.66243397	0.88503670	3.96740600
-0.65743397	3.43333200	3.96740600
-0.65243397	3.43333200	3.96740600
-0.64743397	0.88503670	3.96740600
-0.64243397	-0.28992580	3.96740600
-0.63743397	-0.06103702	3.96740600
-0.63243397	0.00000000	3.96740600
-0.62743397	0.00000000	3.96740600
-0.62243397	0.00000000	3.96740600
-0.61743397	0.00000000	3.96740600
-0.61243397	0.00000000	3.96740600
-0.60743397	0.00000000	3.96740600
-0.60243397	0.00000000	3.96740600
-0.59743397	0.00000000	3.96740600
-0.59243397	0.00000000	3.96740600
-0.58743397	0.00000000	3.96740600
-0.58243397	0.00000000	3.96740600
-0.57743397	0.00000000	3.96740600
-0.57243397	0.00000000	3.96740600
-0.56743397	0.00000000	3.96740600
-0.56243397	0.00000000	3.96740600
-0.55743397	0.00000000	3.96740600
-0.55243397	0.00000000	3.96740600
-0.54743397	0.00000000	3.96740600
-0.54243397	0.00000000	3.96740600
-0.53743397	0.00000000	3.96740600
-0.53243397	0.00000000	3.96740600
-0.52743397	0.00000000	3.96740600
-0.52243397	0.00000000	3.96740600
-0.51743397	0.00000000	3.96740600
-0.51243397	0.00000000	3.96740600
-0.50743397	0.00000000	3.96740600
-0.50243397	0.00000000	3.96740600
-0.49743397	0.00000000	3.96740600
-0.49243397	0.00000000	3.96740600
-0.48743397	0.00000000	3.96740600
-0.48243397	0.00000000	4.02844300
-0.47743397	0.00000000	4.25733200
-0.47243397	0.00000000	3.08236900
-0.46743397	0.00000000	0.53407390
-0.46243397	-0.06103702	0.53407390
-0.45743397	-0.28992580	3.08236900
-0.45243397	0.88503670	4.25733200
-0.44743397	3.43333200	4.02844300
-0.44243397	3.43333200	3.96740600
-0.43743397	0.88503670	3.96740600
-0.43243397	-0.28992580	3.96740600
-0.42743397	-0.06103702	3.96740600
-0.42243397	0.00000000	3.96740600
-0.41743397	0.00000000	3.96740600
-0.41243397	0.00000000	3.96740600
-0.40743397	0.00000000	3.96740600
-0.40243397	0.00000000	3.96740600
-0.39743397	0.00000000	3.96740600
-0.39243397	-0.06103702	3.96740600
-0.38743397	-0.28992580	3.96740600
-0.38243397	0.88503670	3.96740600
-0.37743397	3.43333200	3.96740600
-0.37243397	3.43333200	3.96740600
-0.36743397	0.88503670	3.96740600
-0.36243397	-0.28992580	3.96740600
-0.35743397	-0.06103702	3.96740600
-0.35243397	-0.06103702	3.96740600
-0.34743397	-0.28992580	3.96740600
-0.34243397	0.88503670	3.96740600
-0.33743397	3.43333200	3.96740600
-0.33243397	3.43333200	3.96740600
-0.32743397	0.88503670	3.96740600
-0.32243397	-0.28992580	3.96740600
-0.31743397	-0.06103702	3.96740600
-0.31243397	0.00000000	3.96740600
-0.30743397	0.00000000	3.96740600
-0.30243397	0.00000000	3.96740600
-0.29743397	0.00000000	3.96740600
-0.29243397	0.00000000	3.96740600
-0.28743397	0.00000000	3.96740600
-0.28243397	0.00000000	3.96740600
-0.27743397	0.00000000	3.96740600
-0.27243397	0.00000000	3.96740600
-0.26743397	0.00000000	3.96740600
-0.26243397	0.00000000	3.96740600
-0.25743397	0.00000000	3.96740600
-0.25243397	0.00000000	3.96740600
-0.24743397	0.00000000	3.96740600
-0.24243397	0.00000000	3.96740600
-0.23743397	0.00000000	3.96740600
-0.23243397	-0.06103702	3.96740600
-0.22743397	-0.28992580	3.96740600
-0.22243397	0.88503670	3.96740600
-0.21743397	3.43333200	3.96740600
-0.21243397	3.43333200	3.96740600
-0.20743397	0.88503670	3.96740600
-0.20243397	-0.28992580	3.96740600
-0.19743397	-0.06103702	3.96740600
-0.19243397	0.00000000	3.96740600
-0.18743397	0.00000000	3.96740600
-0.18243397	0.00000000	3.96740600
-0.17743397	0.00000000	3.96740600
-0.17243397	0.00000000	3.96740600
-0.16743397	0.00000000	3.96740600
-0.16243397	0.00000000	3.96740600
-0.15743397	0.00000000	3.96740600
-0.15243397	0.00000000	3.96740600
-0.14743397	0.00000000	3.96740600
-0.14243397	0.00000000	3.96740600
-0.13743397	0.00000000	3.96740600
-0.13243397	0.00000000	3.96740600
-0.12743397	0.00000000	3.96740600
-0.12243397	0.00000000	3.96740600
-0.11743397	0.00000000	3.96740600
-0.11243397	-0.06103702	3.96740600
-0.10743397	-0.28992580	3.96740600
-0.10243397	0.70192570	4.02844300
-0.09743397	2.56355500	4.25733200
-0.09243397	5.79851600	3.14340600
-0.08743397	9.72014400	0.82399970
-0.08243397	13.96222000	-0.22888880
-0.07743397	17.42607000	0.22888880
-0.07243397	22.72103000	-0.82399970
-0.06743397	28.50429000	-3.14340600
-0.06243397	34.91317000	-4.19629500
-0.05743397	40.46754000	-3.73851700
-0.05243397	46.87643000	-4.79140600
-0.04743397	52.65968000	-7.11081200
-0.04243397	57.89361000	-8.22473800
-0.03743397	61.12857000	-7.99584900
-0.03243397	66.36250000	-7.93481200
-0.02743397	72.16101000	-7.93481200
-0.02243397	78.63094000	-7.93481200
-0.01743397	84.41419000	-7.93481200
-0.01243397	89.64812000	-7.87377500
-0.00743397	92.88307000	-7.64488600
-0.00243397	98.17804000	-8.81984900
0.00256603	104.19020000	-11.36814000
0.00756603	109.48510000	-11.36814000
0.01256603	112.72010000	-8.81984900
0.01756603	117.95400000	-7.64488600
0.02256603	123.73730000	-7.87377500
0.02756603	130.20720000	-7.93481200
0.03256603	135.99050000	-7.93481200
0.03756603	141.28540000	-7.93481200
0.04256603	144.76450000	-7.93481200
0.04756603	148.88450000	-7.93481200
0.05256603	152.34840000	-7.93481200
0.05756603	157.70440000	-7.93481200
0.06256603	163.71650000	-7.93481200
0.06756603	169.07250000	-7.93481200
0.07256603	172.53640000	-7.93481200
0.07756603	176.71740000	-7.99584900
0.08256603	180.41020000	-8.22473800
0.08756603	184.65220000	-7.04977500
0.09256603	188.34500000	-4.50148000
0.09756603	192.58700000	-4.50148000
0.10256603	196.27980000	-7.04977500
0.10756603	200.58290000	-8.22473800
0.11256603	204.50450000	-7.99584900
0.11756603	207.63270000	-7.93481200
0.12256603	209.00600000	-7.93481200
0.12756603	212.19520000	-7.93481200
0.13256603	216.36100000	-7.93481200
0.13756603	219.61120000	-7.93481200
0.14256603	221.21340000	-7.93481200
0.14756603	223.27340000	-7.93481200
0.15256603	225.13500000	-7.93481200
0.15756603	227.24080000	-7.93481200
0.16256603	229.10240000	-7.93481200
0.16756603	231.20820000	-7.93481200
0.17256603	233.06980000	-7.93481200
0.17756603	235.17560000	-7.93481200
0.18256603	237.03720000	-7.93481200
0.18756603	239.14300000	-7.93481200
0.19256603	241.00470000	-7.93481200
0.19756603	243.17150000	-7.93481200
0.20256603	245.26200000	-7.93481200
0.20756603	246.31490000	-7.93481200
0.21256603	246.08600000	-7.93481200
0.21756603	245.96390000	-7.93481200
0.22256603	245.73500000	-7.93481200
0.22756603	246.84900000	-7.93481200
0.23256603	249.16840000	-7.93481200
0.23756603	250.22120000	-7.93481200
0.24256603	249.76350000	-7.93481200
0.24756603	250.81640000	-7.93481200
0.25256603	253.13580000	-7.93481200
0.25756603	254.24970000	-7.93481200
0.26256603	254.02080000	-7.93481200
0.26756603	253.95980000	-7.93481200
0.27256603	253.95980000	-7.93481200
0.27756603	253.95980000	-7.93481200
0.28256603	253.95980000	-7.93481200
0.28756603	253.95980000	-7.93481200
0.29256603	253.95980000	-7.93481200
0.29756603	253.95980000	-7.93481200
0.30256603	253.95980000	-7.93481200
0.30756603	253.95980000	-7.93481200
0.31256603	253.95980000	-7.93481200
0.31756603	253.95980000	-7.93481200
0.32256603	253.95980000	-7.93481200
0.32756602	253.95980000	-7.93481200
0.33256602	253.95980000	-7.93481200
0.33756602	253.95980000	-7.93481200
0.34256602	253.95980000	-7.93481200
0.34756602	253.89870000	-7.93481200
0.35256602	253.66980000	-7.93481200
0.35756602	254.78380000	-7.93481200
0.36256602	257.10310000	-7.93481200
0.36756602	258.21710000	-7.93481200
0.37256602	257.98820000	-7.93481200
0.37756602	257.92720000	-7.93481200
0.38256602	257.92720000	-7.93481200
0.38756602	257.92720000	-7.93481200
0.39256602	257.92720000	-7.93481200
0.39756602	257.92720000	-7.93481200
0.40256602	257.92720000	-7.93481200
0.40756602	257.92720000	-7.93481200
0.41256602	257.92720000	-7.93481200
0.41756602	257.92720000	-7.93481200
0.42256602	257.92720000	-7.93481200
0.42756602	257.92720000	-7.93481200
0.43256602	257.92720000	-7.93481200
0.43756602	257.86610000	-7.99584900
0.44256602	257.63720000	-8.22473800
0.44756602	258.75120000	-7.11081200
0.45256602	261.07060000	-4.79140600
0.45756602	262.24550000	-3.67748000
0.46256602	262.24550000	-3.90636900
0.46756602	261.00950000	-3.96740600
0.47256602	258.46120000	-3.96740600
0.47756602	258.52230000	-3.96740600
0.48256602	261.29950000	-3.96740600
0.48756602	261.36050000	-3.96740600
0.49256602	258.81220000	-3.96740600
0.49756602	257.63720000	-3.96740600
0.50256602	257.86610000	-3.96740600
0.50756602	257.98820000	-3.96740600
0.51256602	258.21710000	-3.96740600
0.51756602	257.10310000	-3.96740600
0.52256602	254.78380000	-3.96740600
0.52756602	253.66980000	-3.96740600
0.53256602	253.89870000	-3.96740600
0.53756602	254.02080000	-3.96740600
0.54256602	254.24970000	-3.96740600
0.54756602	253.13580000	-3.96740600
0.55256602	250.81640000	-3.96740600
0.55756602	249.76350000	-3.96740600
0.56256602	250.22120000	-3.96740600
0.56756602	249.16840000	-3.96740600
0.57256602	246.84900000	-3.96740600
0.57756602	245.79610000	-3.96740600
0.58256602	246.25380000	-3.96740600
0.58756602	245.26200000	-3.96740600
0.59256602	243.17150000	-3.96740600
0.59756602	240.94360000	-3.96740600
0.60256602	238.85310000	-3.96740600
0.60756602	237.86130000	-4.02844300
0.61256602	238.31900000	-4.25733200
0.61756602	237.26610000	-3.14340600
0.62256602	234.94670000	-0.82399970
0.62756602	233.89380000	0.35096280
0.63256602	234.35160000	0.35096280
0.63756602	233.35980000	-0.88503670
0.64256602	231.26930000	-3.43333200
0.64756602	229.04140000	-3.37229500
0.65256602	226.95090000	-0.59511090
0.65756602	225.95900000	-0.53407390
0.66256602	226.41680000	-3.08236900
0.66756602	225.36390000	-4.25733200
0.67256602	223.04450000	-4.02844300
0.67756602	221.99160000	-3.96740600
0.68256602	222.44940000	-3.96740600
0.68756602	221.39650000	-4.02844300
0.69256602	219.07710000	-4.25733200
0.69756602	217.96320000	-3.08236900
0.70256602	218.19210000	-0.53407390
0.70756602	218.31410000	-0.53407390
0.71256602	218.54300000	-3.08236900
0.71756602	217.42910000	-4.31836900
0.72256602	215.10970000	-4.31836900
0.72756602	213.99580000	-3.08236900
0.73256602	214.22470000	-0.53407390
0.73756602	214.34670000	-0.53407390
0.74256602	214.57560000	-3.08236900
0.74756602	213.46170000	-4.25733200
0.75256602	211.12700000	-4.02844300
0.75756602	210.07410000	-3.96740600
0.76256602	210.53190000	-3.96740600
0.76756602	209.47900000	-4.02844300
0.77256602	207.15960000	-4.25733200
0.77756602	206.04570000	-3.08236900
0.78256602	206.27460000	-0.53407390
0.78756602	206.33560000	-0.59511090
0.79256602	206.33560000	-3.37229500
0.79756602	206.33560000	-3.43333200
0.80256602	206.33560000	-0.88503670
0.80756602	206.39670000	0.28992580
0.81256602	206.62550000	0.06103702
0.81756602	205.51160000	0.00000000
0.82256602	203.19220000	0.00000000
0.82756602	202.07830000	0.00000000
0.83256602	202.30720000	0.00000000
0.83756602	202.42930000	0.00000000
0.84256602	202.65810000	0.00000000
0.84756602	201.54420000	-0.06103702
0.85256602	199.22480000	-0.28992580
0.85756602	198.11090000	0.88503670
0.86256602	198.33980000	3.43333200
0.86756602	198.40080000	3.43333200
0.87256602	198.40080000	0.88503670
0.87756602	198.40080000	-0.28992580
0.88256602	198.40080000	-0.06103702
0.88756602	198.46190000	0.00000000
0.89256602	198.69080000	0.00000000
0.89756602	197.57680000	0.00000000
0.90256602	195.25740000	0.00000000
0.90756602	194.20450000	0.00000000
0.91256602	194.66230000	0.00000000
0.91756602	193.60940000	0.00000000
0.92256602	191.29000000	0.00000000
0.92756602	190.17610000	0.00000000
0.93256602	190.40500000	0.00000000
0.93756602	190.46600000	0.00000000
0.94256602	190.46600000	0.00000000
0.94756602	190.46600000	0.00000000
0.95256602	190.46600000	0.00000000
0.95756602	190.52700000	0.00000000
0.96256602	190.75590000	0.00000000
0.96756602	189.64200000	0.00000000
0.97256602	187.32260000	0.00000000
0.97756602	186.20870000	0.00000000
0.98256602	186.43760000	0.00000000
0.98756602	186.49860000	0.00000000
0.99256602	186.49860000	0.00000000
0.99756602	186.55960000	0.00000000
1.00256602	186.78850000	0.00000000
1.00756602	185.67460000	0.00000000
1.01256602	183.35520000	0.00000000
1.01756602	182.24130000	0.00000000
1.02256602	182.47020000	0.00000000
1.02756602	182.53120000	0.00000000
1.03256602	182.53120000	0.00000000
1.03756602	182.59220000	0.00000000
1.04256602	182.82110000	0.00000000
1.04756602	181.70720000	0.00000000
1.05256602	179.38780000	0.00000000
1.05756602	178.27390000	-0.06103702
1.06256602	178.50280000	-0.28992580
1.06756602	178.56380000	0.88503670
1.07256602	178.56380000	3.43333200
1.07756602	178.56380000	3.43333200
1.08256602	178.56380000	0.88503670
1.08756602	178.62480000	-0.28992580
1.09256602	178.85370000	-0.06103702
1.09756602	177.73980000	0.00000000
1.10256602	175.42040000	0.00000000
1.10756602	174.30650000	0.00000000
1.11256602	174.53530000	0.00000000
1.11756602	174.59640000	-0.06103702
1.12256602	174.59640000	-0.28992580
1.12756602	174.65740000	0.82399970
1.13256602	174.88630000	3.14340600
1.13756602	173.77240000	4.31836900
1.14256602	171.45300000	4.31836900
1.14756602	170.33910000	3.14340600
1.15256602	170.56790000	0.82399970
1.15756602	170.62900000	-0.28992580
1.16256602	170.62900000	-0.06103702
1.16756602	170.69000000	0.00000000
1.17256602	170.91890000	0.00000000
1.17756602	169.80500000	-0.06103702
1.18256602	167.48560000	-0.28992580
1.18756602	166.37160000	0.82399970
1.19256602	166.60050000	3.14340600
1.19756602	166.66160000	4.31836900
1.20256602	166.66160000	4.31836900
1.20756602	166.66160000	3.14340600
1.21256602	166.66160000	0.82399970
1.21756602	166.72260000	-0.28992580
1.22256602	166.95150000	-0.06103702
1.22756602	165.83760000	0.00000000
1.23256602	163.51820000	0.00000000
1.23756602	162.40430000	0.00000000
1.24256602	162.63310000	0.00000000
1.24756602	162.69420000	0.00000000
1.25256602	162.69420000	0.00000000
1.25756602	162.75520000	-0.06103702
1.26256602	162.98410000	-0.28992580
1.26756602	161.87020000	0.88503670
1.27256602	159.55080000	3.43333200
1.27756602	158.43680000	3.43333200
1.28256602	158.66570000	0.88503670
1.28756602	158.72680000	-0.28992580
1.29256602	158.72680000	-0.06103702
1.29756602	158.72680000	-0.06103702
1.30256602	158.72680000	-0.28992580
1.30756602	158.72680000	0.82399970
1.31256602	158.72680000	3.14340600
1.31756602	158.78780000	4.25733200
1.32256602	159.01670000	4.02844300
1.32756602	157.90280000	3.96740600
1.33256602	155.58340000	3.96740600
1.33756602	154.46940000	3.96740600
1.34256602	154.69830000	3.96740600
1.34756602	154.75940000	3.96740600
1.35256602	154.75940000	3.96740600
1.35756602	154.75940000	3.96740600
1.36256602	154.75940000	3.96740600
1.36756602	154.82040000	3.96740600
1.37256602	155.04930000	3.96740600
1.37756602	153.93530000	3.96740600
1.38256602	151.61590000	3.96740600
1.38756602	150.50200000	3.96740600
1.39256602	150.73090000	3.96740600
1.39756602	150.79190000	3.96740600
1.40256602	150.79190000	3.96740600
1.40756602	150.79190000	3.96740600
1.41256602	150.79190000	3.96740600
1.41756602	150.85300000	3.96740600
1.42256602	151.08190000	3.96740600
1.42756602	149.90690000	3.96740600
1.43256602	147.35860000	3.96740600
1.43756602	147.41960000	3.96740600
1.44256602	150.19680000	3.96740600
1.44756602	150.25790000	3.96740600
1.45256602	147.70960000	3.96740600
1.45756602	146.53460000	3.96740600
1.46256602	146.76350000	3.96740600
1.46756602	146.82450000	3.96740600
1.47256602	146.82450000	3.96740600
1.47756602	146.88560000	3.96740600
1.48256602	147.11450000	3.96740600
1.48756602	146.00050000	3.96740600
1.49256602	143.68110000	3.96740600
1.49756602	142.56720000	3.96740600
1.50256602	142.79610000	3.96740600
1.50756602	142.85710000	3.96740600
1.51256602	142.85710000	3.96740600
1.51756602	142.85710000	3.96740600
1.52256602	142.85710000	3.96740600
1.52756602	142.91820000	3.96740600
1.53256602	143.14710000	3.96740600
1.53756602	142.03310000	3.96740600
1.54256602	139.69850000	3.96740600
1.54756602	138.58450000	3.96740600
1.55256602	138.81340000	3.96740600
1.55756602	138.87450000	3.96740600
1.56256602	138.87450000	3.96740600
1.56756602	138.87450000	3.96740600
1.57256602	138.87450000	3.96740600
1.57756602	138.93550000	3.96740600
1.58256602	139.16440000	3.96740600
1.58756602	137.98940000	3.96740600
1.59256602	135.44110000	3.96740600
1.59756602	135.50220000	3.96740600
1.60256602	138.27940000	3.96740600
1.60756602	138.34040000	3.96740600
1.61256602	135.79210000	3.96740600
1.61756602	134.61710000	3.96740600
1.62256602	134.84600000	3.96740600
1.62756602	134.90710000	3.96740600
1.63256602	134.90710000	3.96740600
1.63756602	134.96810000	3.96740600
1.64256602	135.19700000	3.96740600
1.64756602	134.02200000	3.96740600
1.65256602	131.47370000	3.96740600
1.65756602	131.53480000	3.96740600
1.66256602	134.31200000	3.96740600
1.66756602	134.37300000	3.96740600
1.67256602	131.82470000	3.96740600
1.67756602	130.71080000	3.96740600
1.68256602	131.16850000	3.96740600
1.68756602	130.05460000	3.96740600
1.69256602	127.50630000	3.96740600
1.69756602	127.56740000	3.96740600
1.70256602	130.34450000	3.96740600
1.70756602	130.40560000	3.96740600
1.71256602	127.85730000	3.96740600
1.71756602	126.68230000	3.96740600
1.72256602	126.91120000	3.96740600
1.72756602	126.97230000	3.96740600
1.73256602	126.97230000	3.96740600
1.73756602	126.97230000	3.96740600
1.74256602	126.97230000	3.96740600
1.74756602	127.03330000	3.96740600
1.75256602	127.26220000	3.96740600
1.75756602	126.14820000	3.96740600
1.76256602	123.82880000	3.96740600
1.76756602	122.71490000	3.96740600
1.77256602	122.94380000	3.96740600
1.77756602	123.00480000	3.96740600
1.78256602	123.00480000	3.96740600
1.78756602	123.00480000	3.96740600
1.79256602	123.00480000	3.96740600
1.79756602	123.00480000	3.96740600
1.80256602	123.00480000	3.96740600
1.80756602	123.00480000	3.96740600
1.81256602	123.00480000	3.96740600
1.81756602	123.00480000	3.96740600
1.82256602	123.00480000	3.96740600
1.82756602	123.00480000	3.96740600
1.83256602	123.00480000	3.96740600
1.83756602	123.06590000	3.96740600
1.84256602	123.29480000	3.96740600
1.84756602	122.18080000	3.96740600
1.85256602	119.86140000	3.96740600
1.85756602	118.74750000	3.96740600
1.86256602	118.97640000	3.96740600
1.86756602	119.03740000	3.96740600
1.87256602	119.03740000	3.96740600
1.87756602	119.09850000	3.96740600
1.88256602	119.32740000	3.96740600
1.88756602	118.15240000	3.96740600
1.89256602	115.60410000	3.96740600
1.89756602	115.66510000	3.96740600
1.90256602	118.44230000	3.96740600
1.90756602	118.50340000	3.96740600
1.91256602	115.95510000	3.96740600
1.91756602	114.78010000	3.96740600
1.92256602	115.00900000	3.96740600
1.92756602	115.07000000	3.96740600
1.93256602	115.07000000	3.96740600
1.93756602	115.07000000	3.96740600
1.94256602	115.07000000	3.96740600
1.94756602	115.13110000	3.96740600
1.95256602	115.36000000	3.96740600
1.95756602	114.24600000	3.96740600
1.96256602	111.92660000	3.96740600
1.96756602	110.81270000	3.96740600
1.97256601	111.04160000	3.96740600
1.97756601	111.10260000	3.96740600
1.98256601	111.10260000	3.96740600
1.98756601	111.10260000	3.96740600
1.99256601	111.10260000	3.96740600
1.99756601	111.10260000	3.96740600
2.00256601	111.10260000	3.96740600
2.00756601	111.10260000	3.96740600
2.01256601	111.10260000	3.96740600
2.01756601	111.10260000	3.96740600
2.02256601	111.10260000	3.96740600
2.02756601	111.16370000	3.96740600
2.03256601	111.39250000	3.96740600
2.03756601	110.27860000	3.96740600
2.04256601	107.95920000	3.96740600
2.04756601	106.84530000	3.96740600
2.05256601	107.07420000	3.96740600
2.05756601	107.13520000	3.96740600
2.06256601	107.13520000	3.96740600
2.06756601	107.13520000	3.96740600
2.07256601	107.13520000	3.96740600
2.07756601	107.13520000	3.96740600
2.08256601	107.13520000	3.96740600
2.08756601	107.13520000	3.96740600
2.09256601	107.13520000	3.96740600
2.09756601	107.19630000	3.96740600
2.10256601	107.42510000	3.96740600
2.10756601	106.31120000	3.96740600
2.11256601	103.99180000	3.96740600
2.11756601	102.87790000	3.96740600
2.12256601	103.10680000	3.96740600
2.12756601	103.16780000	3.96740600
2.13256601	103.16780000	3.96740600
2.13756601	103.16780000	3.96740600
2.14256601	103.16780000	3.96740600
2.14756601	103.16780000	3.96740600
2.15256601	103.16780000	3.96740600
2.15756601	103.16780000	3.96740600
2.16256601	103.16780000	3.96740600
2.16756601	103.22890000	3.96740600
2.17256601	103.45770000	3.96740600
2.17756601	102.28280000	3.96740600
2.18256601	99.73448000	3.96740600
2.18756601	99.79552000	3.96740600
2.19256601	102.57270000	3.96740600
2.19756601	102.63370000	3.96740600
2.20256601	100.08540000	3.96740600
2.20756601	98.91048000	3.96740600
2.21256601	99.13937000	3.96740600
2.21756601	99.20041000	3.96740600
2.22256601	99.20041000	3.96740600
2.22756601	99.20041000	3.90636900
2.23256601	99.20041000	3.67748000
2.23756601	99.20041000	4.79140600
2.24256601	99.20041000	7.11081200
2.24756601	99.26145000	8.22473800
2.25256601	99.49034000	7.99584900
2.25756601	98.37641000	7.99584900
2.26256601	96.05700000	8.22473800
2.26756601	94.94308000	7.04977500
2.27256601	95.17197000	4.50148000
2.27756601	95.23300000	4.50148000
2.28256601	95.23300000	7.04977500
2.28756601	95.23300000	8.22473800
2.29256601	95.23300000	7.99584900
2.29756601	95.23300000	7.99584900
2.30256601	95.23300000	8.22473800
2.30756601	95.23300000	7.11081200
2.31256601	95.23300000	4.79140600
2.31756601	95.23300000	3.61644300
2.32256601	95.23300000	3.61644300
2.32756601	95.23300000	4.79140600
2.33256601	95.23300000	7.11081200
2.33756601	95.23300000	8.28577500
2.34256601	95.23300000	8.28577500
2.34756601	95.23300000	7.11081200
2.35256601	95.23300000	4.79140600
2.35756601	95.29404000	3.61644300
2.36256601	95.52293000	3.61644300
2.36756601	94.40900000	4.85244300
2.37256601	92.08959000	7.40073800
2.37756601	90.97568000	7.40073800
2.38256601	91.20457000	4.85244300
2.38756601	91.26560000	3.67748000
2.39256601	91.26560000	3.90636900
2.39756601	91.26560000	3.96740600
2.40256601	91.26560000	3.96740600
2.40756601	91.26560000	3.96740600
2.41256601	91.26560000	3.96740600
2.41756601	91.32664000	3.90636900
2.42256601	91.55552000	3.67748000
2.42756601	90.44160000	4.79140600
2.43256601	88.12219000	7.11081200
2.43756601	87.00826000	8.22473800
2.44256601	87.23715000	7.99584900
2.44756601	87.29819000	7.93481200
2.45256601	87.29819000	7.93481200
2.45756601	87.29819000	7.93481200
2.46256601	87.29819000	7.93481200
2.46756601	87.29819000	7.99584900
2.47256601	87.29819000	8.22473800
2.47756601	87.29819000	7.04977500
2.48256601	87.29819000	4.50148000
2.48756601	87.29819000	4.56251700
2.49256601	87.29819000	7.33970100
2.49756601	87.29819000	7.40073800
2.50256601	87.29819000	4.85244300
2.50756601	87.29819000	3.67748000
2.51256601	87.29819000	3.90636900
2.51756601	87.29819000	3.96740600
2.52256601	87.29819000	3.96740600
2.52756601	87.35923000	3.96740600
2.53256601	87.58812000	3.96740600
2.53756601	86.47419000	3.96740600
2.54256601	84.15479000	3.96740600
2.54756601	83.04086000	3.96740600
2.55256601	83.26974000	3.96740600
2.55756601	83.33078000	3.96740600
2.56256601	83.33078000	3.96740600
2.56756601	83.33078000	3.96740600
2.57256601	83.33078000	3.96740600
2.57756601	83.33078000	3.96740600
2.58256601	83.33078000	3.96740600
2.58756601	83.33078000	3.96740600
2.59256601	83.33078000	3.96740600
2.59756601	83.39182000	3.96740600
2.60256601	83.62070000	3.96740600
2.60756601	82.50678000	3.96740600
2.61256601	80.18738000	3.96740600
2.61756601	79.07346000	3.96740600
2.62256601	79.30235000	3.96740600
2.62756601	79.36338000	3.96740600
2.63256601	79.36338000	3.96740600
2.63756601	79.36338000	3.96740600
2.64256601	79.36338000	3.96740600
2.64756601	79.36338000	3.96740600
2.65256601	79.36338000	3.96740600
2.65756601	79.36338000	3.96740600
2.66256601	79.36338000	3.96740600
2.66756601	79.36338000	3.96740600
2.67256601	79.36338000	3.96740600
2.67756601	79.36338000	3.96740600
2.68256601	79.36338000	3.96740600
2.68756601	79.36338000	3.96740600
2.69256601	79.36338000	3.96740600
2.69756601	79.36338000	3.96740600
2.70256601	79.36338000	3.96740600
2.70756601	79.36338000	3.96740600
2.71256601	79.36338000	3.96740600
2.71756601	79.36338000	3.96740600
2.72256601	79.36338000	3.96740600
2.72756601	79.42442000	3.96740600
2.73256601	79.65331000	3.96740600
2.73756601	78.53938000	3.96740600
2.74256601	76.21997000	3.96740600
2.74756601	75.10605000	3.96740600
2.75256601	75.33494000	3.96740600
2.75756601	75.39597000	3.96740600
2.76256601	75.39597000	3.96740600
2.76756601	75.39597000	3.96740600
2.77256601	75.39597000	3.96740600
2.77756601	75.39597000	3.96740600
2.78256601	75.39597000	3.96740600
2.78756601	75.39597000	3.96740600
2.79256601	75.39597000	3.96740600
2.79756601	75.39597000	3.90636900
2.80256601	75.39597000	3.67748000
2.80756601	75.39597000	4.85244300
2.81256601	75.39597000	7.40073800
2.81756601	75.45701000	7.33970100
2.82256601	75.68590000	4.56251700
2.82756601	74.57197000	4.50148000
2.83256601	72.25256000	7.04977500
2.83756601	71.13864000	8.22473800
2.84256601	71.36753000	7.99584900
2.84756601	71.42857000	7.93481200
2.85256601	71.42857000	7.93481200
2.85756601	71.42857000	7.99584900
2.86256601	71.42857000	8.22473800
2.86756601	71.42857000	7.04977500
2.87256601	71.42857000	4.50148000
2.87756601	71.42857000	4.50148000
2.88256601	71.42857000	7.04977500
2.88756601	71.42857000	8.28577500
2.89256601	71.42857000	8.28577500
2.89756601	71.42857000	7.11081200
2.90256601	71.42857000	4.79140600
2.90756601	71.42857000	3.67748000
2.91256601	71.42857000	3.90636900
2.91756601	71.42857000	3.96740600
2.92256601	71.42857000	3.96740600
2.92756601	71.42857000	3.96740600
2.93256601	71.42857000	3.96740600
2.93756601	71.48961000	3.96740600
2.94256601	71.71850000	3.96740600
2.94756601	70.60457000	3.96740600
2.95256601	68.26991000	3.96740600
2.95756601	67.15598000	3.96740600
2.96256601	67.38486000	3.96740600
2.96756601	67.44590000	3.96740600
2.97256601	67.44590000	3.96740600
2.97756601	67.44590000	3.96740600
2.98256601	67.44590000	3.96740600
2.98756601	67.44590000	3.96740600
2.99256601	67.44590000	3.96740600
2.99756601	67.44590000	3.90636900
3.00256601	67.44590000	3.67748000
3.00756601	67.44590000	4.73036900
3.01256601	67.44590000	6.82088700
3.01756601	67.44590000	8.94192300
3.02256601	67.44590000	10.54414000
3.02756601	67.44590000	13.67229000
3.03256601	67.44590000	17.36503000
3.03756601	67.50694000	22.65999000
3.04256601	67.73582000	28.21436000
3.04756601	66.62190000	35.56932000
3.05256601	64.30249000	42.72591000
3.05756601	63.18857000	53.37687000
3.06256601	63.41746000	64.94338000
3.06756601	63.47850000	77.73064000
3.07256601	63.47850000	88.57997000
3.07756601	63.47850000	102.42010000
3.08256601	63.47850000	115.81770000
3.08756601	63.47850000	129.71890000
3.09256601	63.47850000	140.81240000
3.09756601	63.47850000	152.47050000
3.10256601	63.47850000	161.71760000
3.10756601	63.47850000	171.25460000
3.11256601	63.47850000	178.64010000
3.11756601	63.47850000	186.05610000
3.12256601	63.47850000	191.61040000
3.12756601	63.47850000	196.90540000
3.13256601	63.47850000	200.59820000
3.13756601	63.47850000	203.77210000
3.14256601	63.47850000	205.63370000
3.14756601	63.47850000	206.68660000
3.15256601	63.47850000	206.68660000
3.15756601	63.47850000	205.57270000
3.16256601	63.47850000	203.48210000
3.16756601	63.47850000	201.36110000
3.17256601	63.47850000	199.75890000
3.17756601	63.47850000	196.56970000
3.18256601	63.47850000	192.64810000
3.18756601	63.47850000	188.34500000
3.19256601	63.47850000	184.65220000
3.19756601	63.47850000	180.41020000
3.20256601	63.47850000	176.71740000
3.20756601	63.53953000	172.47530000
3.21256601	63.76842000	168.78260000
3.21756601	62.65450000	164.60160000
3.22256601	60.33509000	161.13770000
3.22756601	59.22116000	155.78170000
3.23256601	59.45005000	149.76960000
3.23756601	59.51109000	144.41360000
3.24256601	59.51109000	140.93450000
3.24756601	59.51109000	136.75340000
3.25256601	59.51109000	133.06070000
3.25756601	59.51109000	128.81860000
3.26256601	59.51109000	125.12590000
3.26756601	59.51109000	120.88380000
3.27256601	59.51109000	117.19110000
3.27756601	59.51109000	112.88800000
3.28256601	59.51109000	108.96630000
3.28756601	59.51109000	105.83820000
3.29256601	59.51109000	104.46490000
3.29756601	59.51109000	101.27570000
3.30256601	59.51109000	97.12515000
3.30756601	59.51109000	93.87492000
3.31256601	59.51109000	92.27271000
3.31756601	59.57213000	90.21272000
3.32256601	59.80102000	88.35108000
3.32756601	58.68709000	86.24530000
3.33256601	56.36768000	84.38367000
3.33756601	55.19272000	82.27789000
3.34256601	55.19272000	80.41627000
3.34756601	56.42872000	78.31049000
3.35256601	58.97702000	76.44886000
3.35756601	58.97702000	74.28204000
3.36256601	56.42872000	72.19153000
3.36756601	55.25376000	71.26072000
3.37256601	55.48264000	71.96265000
3.37756601	55.54368000	69.78057000
3.38256601	55.54368000	65.12650000
3.38756601	55.54368000	62.94442000
3.39256601	55.54368000	63.64635000
3.39756601	55.54368000	62.65450000
3.40256601	55.54368000	60.33509000
3.40756601	55.54368000	59.28220000
3.41256601	55.54368000	59.73998000
3.41756601	55.54368000	58.68709000
3.42256601	55.54368000	56.36768000
3.42756601	55.54368000	55.31479000
3.43256601	55.54368000	55.77257000
3.43756601	55.54368000	54.71968000
3.44256601	55.54368000	52.40028000
3.44756601	55.54368000	51.34739000
3.45256601	55.54368000	51.80516000
3.45756601	55.54368000	50.75228000
3.46256601	55.54368000	48.43287000
3.46756601	55.54368000	47.37998000
3.47256601	55.54368000	47.83776000
3.47756601	55.54368000	46.78487000
3.48256601	55.54368000	44.46547000
3.48756601	55.54368000	43.41258000
3.49256601	55.54368000	43.87035000
3.49756601	55.54368000	42.81747000
3.50256601	55.54368000	40.49806000
3.50756601	55.60472000	39.38414000
3.51256601	55.83361000	39.61302000
3.51756601	54.71968000	39.67406000
3.52256601	52.40028000	39.67406000
3.52756601	51.28635000	39.73510000
3.53256601	51.51524000	39.96399000
3.53756601	51.57627000	38.85006000
3.54256601	51.57627000	36.53065000
3.54756601	51.57627000	35.41673000
3.55256601	51.57627000	35.64562000
3.55756601	51.57627000	35.70665000
3.56256601	51.57627000	35.70665000
3.56756601	51.57627000	35.76769000
3.57256601	51.57627000	35.99658000
3.57756601	51.57627000	34.88266000
3.58256601	51.57627000	32.56325000
3.58756601	51.57627000	31.44932000
3.59256601	51.57627000	31.67821000
3.59756601	51.57627000	31.73925000
3.60256601	51.57627000	31.73925000
3.60756601	51.57627000	31.73925000
3.61256601	51.57627000	31.73925000
3.61756600	51.57627000	31.73925000
3.62256600	51.57627000	31.73925000
3.62756600	51.57627000	31.73925000
3.63256600	51.57627000	31.73925000
3.63756600	51.57627000	31.73925000
3.64256600	51.57627000	31.73925000
3.64756600	51.63731000	31.80028000
3.65256600	51.86620000	32.02917000
3.65756600	50.75228000	30.91525000
3.66256600	48.43287000	28.59584000
3.66756600	47.31895000	27.48192000
3.67256600	47.54784000	27.71080000
3.67756600	47.60887000	27.77184000
3.68256600	47.60887000	27.77184000
3.68756600	47.60887000	27.77184000
3.69256600	47.60887000	27.77184000
3.69756600	47.60887000	27.77184000
3.70256600	47.60887000	27.77184000
3.70756600	47.60887000	27.83288000
3.71256600	47.60887000	28.06177000
3.71756600	47.60887000	26.88680000
3.72256600	47.60887000	24.33851000
3.72756600	47.60887000	24.39955000
3.73256600	47.60887000	27.17673000
3.73756600	47.60887000	27.23777000
3.74256600	47.60887000	24.68947000
3.74756600	47.60887000	23.51451000
3.75256600	47.60887000	23.74340000
3.75756600	47.60887000	23.80444000
3.76256600	47.60887000	23.80444000
3.76756600	47.60887000	23.80444000
3.77256600	47.60887000	23.80444000
3.77756600	47.60887000	23.80444000
3.78256600	47.60887000	23.80444000
3.78756600	47.60887000	23.80444000
3.79256600	47.60887000	23.80444000
3.79756600	47.60887000	23.80444000
3.80256600	47.60887000	23.80444000
3.80756600	47.60887000	23.80444000
3.81256600	47.60887000	23.80444000
3.81756600	47.60887000	23.80444000
3.82256600	47.60887000	23.80444000
3.82756600	47.60887000	23.80444000
3.83256600	47.60887000	23.80444000
3.83756600	47.60887000	23.80444000
3.84256600	47.60887000	23.80444000
3.84756600	47.60887000	23.80444000
3.85256600	47.60887000	23.80444000
3.85756600	47.66991000	23.80444000
3.86256600	47.89880000	23.80444000
3.86756600	46.72383000	23.80444000
3.87256600	44.17554000	23.80444000
3.87756600	44.17554000	23.86547000
3.88256600	46.72383000	24.09436000
3.88756600	47.95984000	22.91940000
3.89256600	47.95984000	20.37111000
3.89756600	46.72383000	20.37111000
3.90256600	44.17554000	22.91940000
3.90756600	44.23658000	24.09436000
3.91256600	47.01376000	23.86547000
3.91756600	47.07480000	23.80444000
3.92256600	44.52650000	23.80444000
3.92756600	43.35154000	23.80444000
3.93256600	43.58043000	23.80444000
3.93756600	43.64147000	23.80444000
3.94256600	43.64147000	23.80444000
3.94756600	43.64147000	23.86547000
3.95256600	43.64147000	24.09436000
3.95756600	43.64147000	22.98043000
3.96256600	43.64147000	20.66103000
3.96756600	43.64147000	19.54710000
3.97256600	43.64147000	19.77599000
3.97756600	43.64147000	19.83703000
3.98256600	43.64147000	19.83703000
3.98756600	43.64147000	19.83703000
3.99256600	43.64147000	19.83703000
3.99756600	43.64147000	19.83703000
4.00256600	43.64147000	19.83703000
4.00756600	43.64147000	19.89807000
4.01256600	43.64147000	20.12696000
4.01756600	43.64147000	18.95199000
4.02256600	43.64147000	16.40370000
4.02756600	43.64147000	16.40370000
4.03256600	43.64147000	18.95199000
4.03756600	43.70250000	20.12696000
4.04256600	43.93139000	19.89807000
4.04756600	42.75643000	19.83703000
4.05256600	40.20813000	19.83703000
4.05756600	40.20813000	19.83703000
4.06256600	42.75643000	19.83703000
4.06756600	43.93139000	19.83703000
4.07256600	43.70250000	19.83703000
4.07756600	43.70250000	19.83703000
4.08256600	43.93139000	19.83703000
4.08756600	42.81747000	19.89807000
4.09256600	40.49806000	20.12696000
4.09756600	39.38414000	19.01303000
4.10256600	39.61302000	16.69362000
4.10756600	39.67406000	15.57970000
4.11256600	39.67406000	15.80859000
4.11756600	39.67406000	15.86962000
4.12256600	39.67406000	15.86962000
4.12756600	39.67406000	15.86962000
4.13256600	39.67406000	15.86962000
4.13756600	39.67406000	15.86962000
4.14256600	39.67406000	15.86962000
4.14756600	39.67406000	15.86962000
4.15256600	39.67406000	15.86962000
4.15756600	39.67406000	15.86962000
4.16256600	39.67406000	15.86962000
4.16756600	39.67406000	15.86962000
4.17256600	39.67406000	15.86962000
4.17756600	39.67406000	15.86962000
4.18256600	39.67406000	15.86962000
4.18756600	39.67406000	15.86962000
4.19256600	39.67406000	15.86962000
4.19756600	39.67406000	15.86962000
4.20256600	39.67406000	15.86962000
4.20756600	39.67406000	15.86962000
4.21256600	39.67406000	15.86962000
4.21756600	39.67406000	15.86962000
4.22256600	39.67406000	15.86962000
4.22756600	39.67406000	15.86962000
4.23256600	39.67406000	15.86962000
4.23756600	39.67406000	15.86962000
4.24256600	39.67406000	15.86962000
4.24756600	39.67406000	15.86962000
4.25256600	39.67406000	15.86962000
4.25756600	39.67406000	15.86962000
4.26256600	39.67406000	15.86962000
4.26756600	39.67406000	15.86962000
4.27256600	39.67406000	15.86962000
4.27756600	39.73510000	15.86962000
4.28256600	39.96399000	15.86962000
4.28756600	38.78902000	15.86962000
4.29256600	36.24073000	15.86962000
4.29756600	36.30176000	15.86962000
4.30256600	39.07895000	15.86962000
4.30756600	39.07895000	15.86962000
4.31256600	36.30176000	15.86962000
4.31756600	36.24073000	15.86962000
4.32256600	38.78902000	15.86962000
4.32756600	40.02502000	15.86962000
4.33256600	40.02502000	15.86962000
4.33756600	38.85006000	15.93066000
4.34256600	36.53065000	16.15955000
4.34756600	35.41673000	15.04562000
4.35256600	35.64562000	12.72622000
4.35756600	35.70665000	11.61229000
4.36256600	35.70665000	11.84118000
4.36756600	35.70665000	11.90222000
4.37256600	35.70665000	11.90222000
4.37756600	35.70665000	11.90222000
4.38256600	35.70665000	11.90222000
4.38756600	35.70665000	11.90222000
4.39256600	35.70665000	11.90222000
4.39756600	35.70665000	11.90222000
4.40256600	35.70665000	11.90222000
4.40756600	35.70665000	11.90222000
4.41256600	35.70665000	11.90222000
4.41756600	35.70665000	11.90222000
4.42256600	35.70665000	11.90222000
4.42756600	35.70665000	11.90222000
4.43256600	35.70665000	11.90222000
4.43756600	35.70665000	11.90222000
4.44256600	35.70665000	11.90222000
4.44756600	35.76769000	11.90222000
4.45256600	35.99658000	11.90222000
4.45756600	34.82162000	11.90222000
4.46256600	32.27332000	11.90222000
4.46756600	32.27332000	11.90222000
4.47256600	34.82162000	11.90222000
4.47756600	35.99658000	11.90222000
4.48256600	35.76769000	11.90222000
4.48756600	35.70665000	11.90222000
4.49256600	35.70665000	11.90222000
4.49756600	35.70665000	11.90222000
4.50256600	35.70665000	11.90222000
4.50756600	35.70665000	11.90222000
4.51256600	35.70665000	11.90222000
4.51756600	35.76769000	11.90222000
4.52256600	35.99658000	11.90222000
4.52756600	34.88266000	11.90222000
4.53256600	32.56325000	11.90222000
4.53756600	31.44932000	11.90222000
4.54256600	31.67821000	11.90222000
4.54756600	31.67821000	11.90222000
4.55256600	31.44932000	11.90222000
4.55756600	32.62428000	11.90222000
4.56256600	35.17258000	11.90222000
4.56756600	35.11155000	11.90222000
4.57256600	32.33436000	11.90222000
4.57756600	32.33436000	11.90222000
4.58256600	35.11155000	11.90222000
4.58756600	35.17258000	11.90222000
4.59256600	32.62428000	11.90222000
4.59756600	31.44932000	11.90222000
4.60256600	31.67821000	11.90222000
4.60756600	31.73925000	11.90222000
4.61256600	31.73925000	11.90222000
4.61756600	31.73925000	11.90222000
4.62256600	31.73925000	11.90222000
4.62756600	31.73925000	11.84118000
4.63256600	31.73925000	11.61229000
4.63756600	31.73925000	12.72622000
4.64256600	31.73925000	15.04562000
4.64756600	31.73925000	16.22059000
4.65256600	31.73925000	16.22059000
4.65756600	31.73925000	15.04562000
4.66256600	31.73925000	12.72622000
4.66756600	31.73925000	11.61229000
4.67256600	31.73925000	11.84118000
4.67756600	31.73925000	11.84118000
4.68256600	31.73925000	11.61229000
4.68756600	31.73925000	12.78725000
4.69256600	31.73925000	15.33555000
4.69756600	31.73925000	15.33555000
4.70256600	31.73925000	12.78725000
4.70756600	31.73925000	11.61229000
4.71256600	31.73925000	11.84118000
4.71756600	31.73925000	11.90222000
4.72256600	31.73925000	11.90222000
4.72756600	31.73925000	11.90222000
4.73256600	31.73925000	11.90222000
4.73756600	31.73925000	11.90222000
4.74256600	31.73925000	11.90222000
4.74756600	31.73925000	11.90222000
4.75256600	31.73925000	11.90222000
4.75756600	31.73925000	11.90222000
4.76256600	31.73925000	11.90222000
4.76756600	31.73925000	11.90222000
4.77256600	31.73925000	11.90222000
4.77756600	31.73925000	11.90222000
4.78256600	31.73925000	11.90222000
4.78756600	31.73925000	11.90222000
4.79256600	31.73925000	11.90222000
4.79756600	31.73925000	11.90222000
4.80256600	31.73925000	11.90222000
4.80756600	31.73925000	11.90222000
4.81256600	31.73925000	11.90222000
4.81756600	31.73925000	11.90222000
4.82256600	31.73925000	11.90222000
4.82756600	31.73925000	11.90222000
4.83256600	31.73925000	11.90222000
4.83756600	31.80028000	11.90222000
4.84256600	32.02917000	11.90222000
4.84756600	30.85421000	11.90222000
4.85256600	28.30592000	11.90222000
4.85756600	28.30592000	11.90222000
4.86256600	30.85421000	11.90222000
4.86756600	32.02917000	11.90222000
4.87256600	31.80028000	11.90222000
4.87756600	31.80028000	11.90222000
4.88256600	32.02917000	11.90222000
4.88756600	30.91525000	11.90222000
4.89256600	28.59584000	11.90222000
4.89756600	27.42088000	11.90222000
4.90256600	27.42088000	11.90222000
4.90756600	28.65688000	11.90222000
4.91256600	31.20517000	11.90222000
4.91756600	31.20517000	11.90222000
4.92256600	28.65688000	11.90222000
4.92756600	27.42088000	11.90222000
4.93256600	27.42088000	11.90222000
4.93756600	28.65688000	11.90222000
4.94256600	31.20517000	11.90222000
4.94756600	31.20517000	11.90222000
4.95256600	28.65688000	11.90222000
4.95756600	27.48192000	11.90222000
4.96256600	27.71080000	11.90222000
4.96756600	27.77184000	11.90222000
4.97256600	27.77184000	11.90222000
4.97756600	27.77184000	11.90222000
4.98256600	27.77184000	11.90222000
4.98756600	27.77184000	11.90222000
4.99256600	27.77184000	11.90222000
4.99756600	27.77184000	11.90222000
5.00256600	27.77184000	11.90222000
5.00756600	27.77184000	11.90222000
5.01256600	27.77184000	11.90222000
5.01756600	27.77184000	11.90222000
5.02256600	27.77184000	11.90222000
5.02756600	27.77184000	11.90222000
5.03256600	27.77184000	11.90222000
5.03756600	27.77184000	11.90222000
5.04256600	27.77184000	11.90222000
5.04756600	27.77184000	11.90222000
5.05256600	27.77184000	11.90222000
5.05756600	27.77184000	11.90222000
5.06256600	27.77184000	11.90222000
5.06756600	27.77184000	11.90222000
5.07256600	27.77184000	11.90222000
5.07756600	27.77184000	11.90222000
5.08256600	27.77184000	11.90222000
5.08756600	27.77184000	11.90222000
5.09256600	27.77184000	11.90222000
5.09756600	27.77184000	11.90222000
5.10256600	27.77184000	11.90222000
5.10756600	27.77184000	11.90222000
5.11256600	27.77184000	11.90222000
5.11756600	27.77184000	11.90222000
5.12256600	27.77184000	11.90222000
5.12756600	27.83288000	11.90222000
5.13256600	28.06177000	11.90222000
5.13756600	26.88680000	11.90222000
5.14256600	24.33851000	11.90222000
5.14756600	24.33851000	11.90222000
5.15256600	26.88680000	11.90222000
5.15756600	28.12280000	11.90222000
5.16256600	28.12280000	11.90222000
5.16756600	26.94784000	11.96325000
5.17256600	24.62844000	12.19214000
5.17756600	23.45347000	11.01718000
5.18256600	23.45347000	8.46888600
5.18756600	24.62844000	8.52992300
5.19256600	26.94784000	11.30711000
5.19756600	28.06177000	11.36814000
5.20256600	27.83288000	8.81984900
5.20756600	27.83288000	7.58384900
5.21256600	28.06177000	7.58384900
5.21756600	26.88680000	8.75881200
5.22256600	24.33851000	11.07822000
5.22756600	24.33851000	12.19214000
5.23256600	26.88680000	11.96325000
5.23756600	28.06177000	11.90222000
5.24256600	27.83288000	11.90222000
5.24756600	27.77184000	11.96325000
5.25256600	27.77184000	12.19214000
5.25756600	27.83288000	11.01718000
5.26256599	28.06177000	8.46888600
5.26756599	26.88680000	8.52992300
5.27256599	24.33851000	11.30711000
5.27756599	24.39955000	11.36814000
5.28256599	27.17673000	8.81984900
5.28756599	27.23777000	7.64488600
5.29256599	24.68947000	7.87377500
5.29756599	23.51451000	7.93481200
5.30256599	23.74340000	7.93481200
5.30756599	23.80444000	7.93481200
5.31256599	23.80444000	7.93481200
5.31756599	23.80444000	7.93481200
5.32256599	23.80444000	7.93481200
5.32756599	23.80444000	7.93481200
5.33256599	23.80444000	7.93481200
5.33756599	23.80444000	7.93481200
5.34256599	23.80444000	7.93481200
5.34756599	23.80444000	7.93481200
5.35256599	23.80444000	7.93481200
5.35756599	23.80444000	7.93481200
5.36256599	23.80444000	7.93481200
5.36756599	23.80444000	7.87377500
5.37256599	23.80444000	7.64488600
5.37756599	23.80444000	8.75881200
5.38256599	23.80444000	11.07822000
5.38756599	23.80444000	12.25318000
5.39256599	23.80444000	12.25318000
5.39756599	23.80444000	11.07822000
5.40256599	23.80444000	8.75881200
5.40756599	23.80444000	7.64488600
5.41256599	23.80444000	7.87377500
5.41756599	23.80444000	7.87377500
5.42256599	23.80444000	7.64488600
5.42756599	23.80444000	8.75881200
5.43256599	23.80444000	11.07822000
5.43756599	23.80444000	12.25318000
5.44256599	23.80444000	12.25318000
5.44756599	23.80444000	11.07822000
5.45256599	23.80444000	8.75881200
5.45756599	23.80444000	7.64488600
5.46256599	23.80444000	7.87377500
5.46756599	23.80444000	7.93481200
5.47256599	23.80444000	7.93481200
5.47756599	23.80444000	7.93481200
5.48256599	23.80444000	7.93481200
5.48756599	23.80444000	7.93481200
5.49256599	23.80444000	7.93481200
5.49756599	23.80444000	7.93481200
5.50256599	23.80444000	7.93481200
5.50756599	23.80444000	7.93481200
5.51256599	23.80444000	7.93481200
5.51756599	23.80444000	7.93481200
5.52256599	23.80444000	7.93481200
5.52756599	23.80444000	7.93481200
5.53256599	23.80444000	7.93481200
5.53756599	23.80444000	7.93481200
5.54256599	23.80444000	7.93481200
5.54756599	23.80444000	7.93481200
5.55256599	23.80444000	7.93481200
5.55756599	23.80444000	7.93481200
5.56256599	23.80444000	7.93481200
5.56756599	23.80444000	7.93481200
5.57256599	23.80444000	7.93481200
5.57756599	23.80444000	7.93481200
5.58256599	23.80444000	7.93481200
5.58756599	23.80444000	7.93481200
5.59256599	23.80444000	7.93481200
5.59756599	23.80444000	7.93481200
5.60256599	23.80444000	7.93481200
5.60756599	23.80444000	7.93481200
5.61256599	23.80444000	7.93481200
5.61756599	23.80444000	7.87377500
5.62256599	23.80444000	7.64488600
5.62756599	23.80444000	8.75881200
5.63256599	23.80444000	11.07822000
5.63756599	23.80444000	12.19214000
5.64256599	23.80444000	11.96325000
5.64756599	23.80444000	11.90222000
5.65256599	23.80444000	11.90222000
5.65756599	23.86547000	11.90222000
5.66256599	24.09436000	11.90222000
5.66756599	22.91940000	11.90222000
5.67256599	20.37111000	11.90222000
5.67756599	20.43214000	11.90222000
5.68256599	23.20932000	11.90222000
5.68756599	23.20932000	11.90222000
5.69256599	20.43214000	11.90222000
5.69756599	20.43214000	11.90222000
5.70256599	23.20932000	11.90222000
5.70756599	23.27036000	11.90222000
5.71256599	20.72207000	11.90222000
5.71756599	19.54710000	11.90222000
5.72256599	19.77599000	11.90222000
5.72756599	19.83703000	11.90222000
5.73256599	19.83703000	11.90222000
5.73756599	19.83703000	11.90222000
5.74256599	19.83703000	11.90222000
5.74756599	19.83703000	11.90222000
5.75256599	19.83703000	11.90222000
5.75756599	19.83703000	11.90222000
5.76256599	19.83703000	11.90222000
5.76756599	19.83703000	11.90222000
5.77256599	19.83703000	11.90222000
5.77756599	19.83703000	11.90222000
5.78256599	19.83703000	11.90222000
5.78756599	19.83703000	11.90222000
5.79256599	19.83703000	11.90222000
5.79756599	19.83703000	11.90222000
5.80256599	19.83703000	11.90222000
5.80756599	19.83703000	11.90222000
5.81256599	19.83703000	11.90222000
5.81756599	19.83703000	11.90222000
5.82256599	19.83703000	11.90222000
5.82756599	19.83703000	11.96325000
5.83256599	19.83703000	12.19214000
5.83756599	19.83703000	11.01718000
5.84256599	19.83703000	8.46888600
5.84756599	19.83703000	8.46888600
5.85256599	19.83703000	11.01718000
5.85756599	19.83703000	12.19214000
5.86256599	19.83703000	11.96325000
5.86756599	19.83703000	11.90222000
5.87256599	19.83703000	11.90222000
5.87756599	19.83703000	11.90222000
5.88256599	19.83703000	11.90222000
5.88756599	19.83703000	11.90222000
5.89256599	19.83703000	11.90222000
5.89756599	19.83703000	11.96325000
5.90256599	19.83703000	12.19214000
5.90756599	19.83703000	11.07822000
5.91256599	19.83703000	8.75881200
5.91756599	19.83703000	7.64488600
5.92256599	19.83703000	7.87377500
5.92756599	19.83703000	7.93481200
5.93256599	19.83703000	7.93481200
5.93756599	19.83703000	7.93481200
5.94256599	19.83703000	7.93481200
5.94756599	19.83703000	7.93481200
5.95256599	19.83703000	7.93481200
5.95756599	19.83703000	7.93481200
5.96256599	19.83703000	7.93481200
5.96756599	19.83703000	7.93481200
5.97256599	19.83703000	7.93481200
5.97756599	19.83703000	7.93481200
5.98256599	19.83703000	7.93481200
5.98756599	19.83703000	7.93481200
5.99256599	19.83703000	7.93481200
5.99756599	19.83703000	7.93481200
6.00256599	19.83703000	7.93481200
6.00756599	19.83703000	7.93481200
6.01256599	19.83703000	7.93481200
6.01756599	19.83703000	7.93481200
6.02256599	19.83703000	7.93481200
6.02756599	19.83703000	7.93481200
6.03256599	19.83703000	7.93481200
6.03756599	19.83703000	7.87377500
6.04256599	19.83703000	7.64488600
6.04756599	19.83703000	8.75881200
6.05256599	19.83703000	11.07822000
6.05756599	19.83703000	12.25318000
6.06256599	19.83703000	12.25318000
6.06756599	19.83703000	11.01718000
6.07256599	19.83703000	8.46888600
6.07756599	19.83703000	8.46888600
6.08256599	19.83703000	11.01718000
6.08756599	19.83703000	12.19214000
6.09256599	19.83703000	11.96325000
6.09756599	19.83703000	11.96325000
6.10256599	19.83703000	12.19214000
6.10756599	19.83703000	11.07822000
6.11256599	19.83703000	8.75881200
6.11756599	19.83703000	7.64488600
6.12256599	19.83703000	7.87377500
6.12756599	19.83703000	7.93481200
6.13256599	19.83703000	7.93481200
6.13756599	19.83703000	7.93481200
6.14256599	19.83703000	7.93481200
6.14756599	19.83703000	7.93481200
6.15256599	19.83703000	7.93481200
6.15756599	19.83703000	7.93481200
6.16256599	19.83703000	7.93481200
6.16756599	19.83703000	7.93481200
6.17256599	19.83703000	7.93481200
6.17756599	19.83703000	7.93481200
6.18256599	19.83703000	7.93481200
6.18756599	19.83703000	7.93481200
6.19256599	19.83703000	7.93481200
6.19756599	19.83703000	7.93481200
6.20256599	19.83703000	7.93481200
6.20756599	19.89807000	7.93481200
6.21256599	20.12696000	7.93481200
6.21756599	19.01303000	7.93481200
6.22256599	16.69362000	7.93481200
6.22756599	15.51866000	7.93481200
6.23256599	15.51866000	7.93481200
6.23756599	16.75466000	7.93481200
6.24256599	19.30296000	7.93481200
6.24756599	19.30296000	7.93481200
6.25256599	16.75466000	7.93481200
6.25756599	15.57970000	7.93481200
6.26256599	15.80859000	7.93481200
6.26756599	15.86962000	7.93481200
6.27256599	15.86962000	7.93481200
6.27756599	15.86962000	7.93481200
6.28256599	15.86962000	7.93481200
6.28756599	15.86962000	7.93481200
6.29256599	15.86962000	7.93481200
6.29756599	15.86962000	7.87377500
6.30256599	15.86962000	7.64488600
6.30756599	15.86962000	8.81984900
6.31256599	15.86962000	11.36814000
6.31756599	15.86962000	11.36814000
6.32256599	15.86962000	8.81984900
6.32756599	15.86962000	7.64488600
6.33256599	15.86962000	7.87377500
6.33756599	15.86962000	7.93481200
6.34256599	15.86962000	7.93481200
6.34756599	15.86962000	7.93481200
6.35256599	15.86962000	7.93481200
6.35756599	15.86962000	7.93481200
6.36256599	15.86962000	7.93481200
6.36756599	15.86962000	7.93481200
6.37256599	15.86962000	7.93481200
6.37756599	15.86962000	7.93481200
6.38256599	15.86962000	7.93481200
6.38756599	15.86962000	7.93481200
6.39256599	15.86962000	7.93481200
6.39756599	15.86962000	7.87377500
6.40256599	15.86962000	7.64488600
6.40756599	15.86962000	8.81984900
6.41256599	15.86962000	11.36814000
6.41756599	15.86962000	11.36814000
6.42256599	15.86962000	8.81984900
6.42756599	15.86962000	7.58384900
6.43256599	15.86962000	7.58384900
6.43756599	15.86962000	8.75881200
6.44256599	15.86962000	11.07822000
6.44756599	15.86962000	12.19214000
6.45256599	15.86962000	11.96325000
6.45756599	15.86962000	11.90222000
6.46256599	15.86962000	11.90222000
6.46756599	15.86962000	11.90222000
6.47256599	15.86962000	11.90222000
6.47756599	15.86962000	11.90222000
6.48256599	15.86962000	11.90222000
6.48756599	15.86962000	11.90222000
6.49256599	15.86962000	11.90222000
6.49756599	15.86962000	11.90222000
6.50256599	15.86962000	11.90222000
6.50756599	15.86962000	11.90222000
6.51256599	15.86962000	11.90222000
6.51756599	15.86962000	11.90222000
6.52256599	15.86962000	11.90222000
6.52756599	15.86962000	11.90222000
6.53256599	15.86962000	11.90222000
6.53756599	15.86962000	11.90222000
6.54256599	15.86962000	11.90222000
6.54756599	15.86962000	11.90222000
6.55256599	15.86962000	11.90222000
6.55756599	15.86962000	11.90222000
6.56256599	15.86962000	11.90222000
6.56756599	15.86962000	11.90222000
6.57256599	15.86962000	11.90222000
6.57756599	15.86962000	11.90222000
6.58256599	15.86962000	11.90222000
6.58756599	15.86962000	11.90222000
6.59256599	15.86962000	11.90222000
6.59756599	15.86962000	11.96325000
6.60256599	15.86962000	12.19214000
6.60756599	15.86962000	11.01718000
6.61256599	15.86962000	8.46888600
6.61756599	15.86962000	8.52992300
6.62256599	15.86962000	11.30711000
6.62756599	15.86962000	11.36814000
6.63256599	15.86962000	8.81984900
6.63756599	15.86962000	7.64488600
6.64256599	15.86962000	7.87377500
6.64756599	15.86962000	7.93481200
6.65256599	15.86962000	7.93481200
6.65756599	15.86962000	7.93481200
6.66256599	15.86962000	7.93481200
6.66756599	15.86962000	7.93481200
6.67256599	15.86962000	7.93481200
6.67756599	15.86962000	7.87377500
6.68256599	15.86962000	7.64488600
6.68756599	15.86962000	8.75881200
6.69256599	15.86962000	11.07822000
6.69756599	15.86962000	12.19214000
6.70256599	15.86962000	11.96325000
6.70756599	15.86962000	11.96325000
6.71256599	15.86962000	12.19214000
6.71756599	15.86962000	11.01718000
6.72256599	15.86962000	8.46888600
6.72756599	15.86962000	8.46888600
6.73256599	15.86962000	11.01718000
6.73756599	15.86962000	12.25318000
6.74256599	15.86962000	12.25318000
6.74756599	15.86962000	11.07822000
6.75256599	15.86962000	8.75881200
6.75756599	15.86962000	7.64488600
6.76256599	15.86962000	7.87377500
6.76756599	15.86962000	7.93481200
6.77256599	15.86962000	7.93481200
6.77756599	15.86962000	7.93481200
6.78256599	15.86962000	7.93481200
6.78756599	15.86962000	7.93481200
6.79256599	15.86962000	7.93481200
6.79756599	15.86962000	7.93481200
6.80256599	15.86962000	7.93481200
6.80756599	15.86962000	7.93481200
6.81256599	15.86962000	7.93481200
6.81756599	15.86962000	7.93481200
6.82256599	15.86962000	7.93481200
6.82756599	15.86962000	7.93481200
6.83256599	15.86962000	7.93481200
6.83756599	15.86962000	7.93481200
6.84256599	15.86962000	7.93481200
6.84756599	15.86962000	7.93481200
6.85256599	15.86962000	7.93481200
6.85756599	15.86962000	7.93481200
6.86256599	15.86962000	7.93481200
6.86756599	15.86962000	7.93481200
6.87256599	15.86962000	7.93481200
6.87756599	15.86962000	7.93481200
6.88256599	15.86962000	7.93481200
6.88756599	15.86962000	7.93481200
6.89256599	15.86962000	7.93481200
6.89756599	15.86962000	7.93481200
6.90256599	15.86962000	7.93481200
6.90756598	15.86962000	7.93481200
6.91256598	15.86962000	7.93481200
6.91756598	15.86962000	7.93481200
6.92256598	15.86962000	7.93481200
6.92756598	15.86962000	7.93481200
6.93256598	15.86962000	7.93481200
6.93756598	15.86962000	7.93481200
6.94256598	15.86962000	7.93481200
6.94756598	15.86962000	7.93481200
6.95256598	15.86962000	7.93481200
6.95756598	15.86962000	7.93481200
6.96256598	15.86962000	7.93481200
6.96756598	15.86962000	7.93481200
6.97256598	15.86962000	7.93481200
6.97756598	15.86962000	7.93481200
6.98256598	15.86962000	7.93481200
6.98756598	15.86962000	7.93481200
6.99256598	15.86962000	7.93481200
6.99756598	15.86962000	7.93481200
7.00256598	15.86962000	7.93481200
7.00756598	15.86962000	7.93481200
7.01256598	15.86962000	7.93481200
7.01756598	15.86962000	7.93481200
7.02256598	15.86962000	7.93481200
7.02756598	15.86962000	7.93481200
7.03256598	15.86962000	7.93481200
7.03756598	15.86962000	7.93481200
7.04256598	15.86962000	7.93481200
7.04756598	15.93066000	7.93481200
7.05256598	16.15955000	7.93481200
7.05756598	14.98459000	7.93481200
7.06256598	12.43629000	7.93481200
7.06756598	12.43629000	7.93481200
7.07256598	14.98459000	7.93481200
7.07756598	16.15955000	7.93481200
7.08256598	15.93066000	7.93481200
7.08756598	15.86962000	7.93481200
7.09256598	15.86962000	7.93481200
7.09756598	15.93066000	7.93481200
7.10256598	16.15955000	7.93481200
7.10756598	14.98459000	7.93481200
7.11256598	12.43629000	7.93481200
7.11756598	12.49733000	7.93481200
7.12256598	15.27451000	7.93481200
7.12756598	15.27451000	7.93481200
7.13256598	12.49733000	7.93481200
7.13756598	12.43629000	7.93481200
7.14256598	14.98459000	7.93481200
7.14756598	16.22059000	7.93481200
7.15256598	16.22059000	7.93481200
7.15756598	14.98459000	7.93481200
7.16256598	12.43629000	7.93481200
7.16756598	12.49733000	7.93481200
7.17256598	15.27451000	7.93481200
7.17756598	15.33555000	7.93481200
7.18256598	12.78725000	7.93481200
7.18756598	11.61229000	7.93481200
7.19256598	11.84118000	7.93481200
7.19756598	11.90222000	7.93481200
7.20256598	11.90222000	7.93481200
7.20756598	11.84118000	7.93481200
7.21256598	11.61229000	7.93481200
7.21756598	12.72622000	7.93481200
7.22256598	15.04562000	7.93481200
7.22756598	16.22059000	7.93481200
7.23256598	16.22059000	7.93481200
7.23756598	15.04562000	7.93481200
7.24256598	12.72622000	7.93481200
7.24756598	11.61229000	7.93481200
7.25256598	11.84118000	7.93481200
7.25756598	11.90222000	7.93481200
7.26256598	11.90222000	7.93481200
7.26756598	11.84118000	7.93481200
7.27256598	11.61229000	7.93481200
7.27756598	12.78725000	7.93481200
7.28256598	15.33555000	7.93481200
7.28756598	15.33555000	7.93481200
7.29256598	12.78725000	7.93481200
7.29756598	11.61229000	7.93481200
7.30256598	11.84118000	7.93481200
7.30756598	11.84118000	7.93481200
7.31256598	11.61229000	7.93481200
7.31756598	12.72622000	7.93481200
7.32256598	15.04562000	7.93481200
7.32756598	16.22059000	7.93481200
7.33256598	16.22059000	7.93481200
7.33756598	15.04562000	7.93481200
7.34256598	12.72622000	7.93481200
7.34756598	11.61229000	7.93481200
7.35256598	11.84118000	7.93481200
7.35756598	11.84118000	7.93481200
7.36256598	11.61229000	7.93481200
7.36756598	12.78725000	7.93481200
7.37256598	15.33555000	7.93481200
7.37756598	15.27451000	7.93481200
7.38256598	12.49733000	7.93481200
7.38756598	12.49733000	7.93481200
7.39256598	15.27451000	7.93481200
7.39756598	15.33555000	7.93481200
7.40256598	12.78725000	7.93481200
7.40756598	11.61229000	7.93481200
7.41256598	11.84118000	7.93481200
7.41756598	11.90222000	7.93481200
7.42256598	11.90222000	7.93481200
7.42756598	11.84118000	7.93481200
7.43256598	11.61229000	7.93481200
7.43756598	12.78725000	7.93481200
7.44256598	15.33555000	7.93481200
7.44756598	15.33555000	7.93481200
7.45256598	12.78725000	7.93481200
7.45756598	11.61229000	7.93481200
7.46256598	11.84118000	7.93481200
7.46756598	11.90222000	7.93481200
7.47256598	11.90222000	7.93481200
7.47756598	11.90222000	7.93481200
7.48256598	11.90222000	7.93481200
7.48756598	11.90222000	7.93481200
7.49256598	11.90222000	7.93481200
7.49756598	11.90222000	7.93481200
7.50256598	11.90222000	7.93481200
7.50756598	11.90222000	7.93481200
7.51256598	11.90222000	7.93481200
7.51756598	11.84118000	7.93481200
7.52256598	11.61229000	7.93481200
7.52756598	12.78725000	7.93481200
7.53256598	15.33555000	7.93481200
7.53756598	15.33555000	7.93481200
7.54256598	12.78725000	7.93481200
7.54756598	11.61229000	7.93481200
7.55256598	11.84118000	7.93481200
7.55756598	11.90222000	7.93481200
7.56256598	11.90222000	7.93481200
7.56756598	11.84118000	7.93481200
7.57256598	11.61229000	7.93481200
7.57756598	12.78725000	7.93481200
7.58256598	15.33555000	7.93481200
7.58756598	15.33555000	7.99584900
7.59256598	12.78725000	8.22473800
7.59756598	11.61229000	7.04977500
7.60256598	11.84118000	4.50148000
7.60756598	11.90222000	4.50148000
7.61256598	11.90222000	7.04977500
7.61756598	11.90222000	8.22473800
7.62256598	11.90222000	7.99584900
7.62756598	11.90222000	7.93481200
7.63256598	11.90222000	7.93481200
7.63756598	11.90222000	7.93481200
7.64256598	11.90222000	7.93481200
7.64756598	11.90222000	7.93481200
7.65256598	11.90222000	7.93481200
7.65756598	11.90222000	7.93481200
7.66256598	11.90222000	7.93481200
7.66756598	11.90222000	7.93481200
7.67256598	11.90222000	7.93481200
7.67756598	11.90222000	7.93481200
7.68256598	11.90222000	7.93481200
7.68756598	11.90222000	7.93481200
7.69256598	11.90222000	7.93481200
7.69756598	11.90222000	7.93481200
7.70256598	11.90222000	7.93481200
7.70756598	11.90222000	7.93481200
7.71256598	11.90222000	7.93481200
7.71756598	11.90222000	7.93481200
7.72256598	11.90222000	7.93481200
7.72756598	11.90222000	7.93481200
7.73256598	11.90222000	7.93481200
7.73756598	11.90222000	7.93481200
7.74256598	11.90222000	7.93481200
7.74756598	11.90222000	7.93481200
7.75256598	11.90222000	7.93481200
7.75756598	11.90222000	7.93481200
7.76256598	11.90222000	7.93481200
7.76756598	11.90222000	7.93481200
7.77256598	11.90222000	7.93481200
7.77756598	11.90222000	7.93481200
7.78256598	11.90222000	7.93481200
7.78756598	11.90222000	7.93481200
7.79256598	11.90222000	7.93481200
7.79756598	11.90222000	7.93481200
7.80256598	11.90222000	7.93481200
7.80756598	11.90222000	7.93481200
7.81256598	11.90222000	7.93481200
7.81756598	11.90222000	7.93481200
7.82256598	11.90222000	7.93481200
7.82756598	11.90222000	7.93481200
7.83256598	11.90222000	7.93481200
7.83756598	11.90222000	7.93481200
7.84256598	11.90222000	7.93481200
7.84756598	11.90222000	7.93481200
7.85256598	11.90222000	7.93481200
7.85756598	11.90222000	7.93481200
7.86256598	11.90222000	7.93481200
7.86756598	11.90222000	7.93481200
7.87256598	11.90222000	7.93481200
7.87756598	11.90222000	7.93481200
7.88256598	11.90222000	7.93481200
7.88756598	11.90222000	7.93481200
7.89256598	11.90222000	7.93481200
7.89756598	11.90222000	7.93481200
7.90256598	11.90222000	7.93481200
7.90756598	11.90222000	7.93481200
7.91256598	11.90222000	7.93481200
7.91756598	11.90222000	7.93481200
7.92256598	11.90222000	7.93481200
7.92756598	11.90222000	7.93481200
7.93256598	11.90222000	7.93481200
7.93756598	11.90222000	7.93481200
7.94256598	11.90222000	7.93481200
7.94756598	11.90222000	7.93481200
7.95256598	11.90222000	7.93481200
7.95756598	11.90222000	7.93481200
7.96256598	11.90222000	7.93481200
7.96756598	11.90222000	7.93481200
7.97256598	11.90222000	7.93481200
7.97756598	11.90222000	7.93481200
7.98256598	11.90222000	7.93481200
7.98756598	11.90222000	7.93481200
7.99256598	11.90222000	7.93481200
7.99756598	11.90222000	7.93481200
8.00256598	11.90222000	7.93481200
8.00756598	11.90222000	7.93481200
8.01256598	11.90222000	7.93481200
8.01756598	11.90222000	7.93481200
8.02256598	11.90222000	7.93481200
8.02756598	11.90222000	7.93481200
8.03256598	11.90222000	7.93481200
8.03756598	11.90222000	7.93481200
8.04256598	11.90222000	7.93481200
8.04756598	11.90222000	7.93481200
8.05256598	11.90222000	7.93481200
8.05756598	11.90222000	7.93481200
8.06256598	11.90222000	7.93481200
8.06756598	11.96325000	7.93481200
8.07256598	12.19214000	7.93481200
8.07756598	11.01718000	7.93481200
8.08256598	8.46888600	7.93481200
8.08756598	8.46888600	7.93481200
8.09256598	11.01718000	7.93481200
8.09756598	12.19214000	7.93481200
8.10256598	11.96325000	7.93481200
8.10756598	11.90222000	7.93481200
8.11256598	11.90222000	7.93481200
8.11756598	11.90222000	7.93481200
8.12256598	11.90222000	7.93481200
8.12756598	11.90222000	7.93481200
8.13256598	11.90222000	7.93481200
8.13756598	11.90222000	7.93481200
8.14256598	11.90222000	7.93481200
8.14756598	11.90222000	7.93481200
8.15256598	11.90222000	7.93481200
8.15756598	11.90222000	7.93481200
8.16256598	11.90222000	7.93481200
8.16756598	11.90222000	7.93481200
8.17256598	11.90222000	7.93481200
8.17756598	11.90222000	7.93481200
8.18256598	11.90222000	7.93481200
8.18756598	11.90222000	7.93481200
8.19256598	11.90222000	7.93481200
8.19756598	11.90222000	7.93481200
8.20256598	11.90222000	7.93481200
8.20756598	11.90222000	7.93481200
8.21256598	11.90222000	7.93481200
8.21756598	11.90222000	7.93481200
8.22256598	11.90222000	7.93481200
8.22756598	11.90222000	7.93481200
8.23256598	11.90222000	7.93481200
8.23756598	11.90222000	7.93481200
8.24256598	11.90222000	7.93481200
8.24756598	11.90222000	7.93481200
8.25256598	11.90222000	7.93481200
8.25756598	11.90222000	7.93481200
8.26256598	11.90222000	7.93481200
8.26756598	11.90222000	7.93481200
8.27256598	11.90222000	7.93481200
8.27756598	11.90222000	7.93481200
8.28256598	11.90222000	7.93481200
8.28756598	11.90222000	7.93481200
8.29256598	11.90222000	7.93481200
8.29756598	11.90222000	7.93481200
8.30256598	11.90222000	7.93481200
8.30756598	11.90222000	7.93481200
8.31256598	11.90222000	7.93481200
8.31756598	11.90222000	7.93481200
8.32256598	11.90222000	7.93481200
8.32756598	11.90222000	7.93481200
8.33256598	11.90222000	7.93481200
8.33756598	11.90222000	7.99584900
8.34256598	11.90222000	8.22473800
8.34756598	11.90222000	7.04977500
8.35256598	11.90222000	4.50148000
8.35756598	11.90222000	4.50148000
8.36256598	11.90222000	7.04977500
8.36756598	11.90222000	8.22473800
8.37256598	11.90222000	7.99584900
8.37756598	11.90222000	7.99584900
8.38256598	11.90222000	8.22473800
8.38756598	11.90222000	7.11081200
8.39256598	11.90222000	4.79140600
8.39756598	11.96325000	3.61644300
8.40256598	12.19214000	3.61644300
8.40756598	11.01718000	4.85244300
8.41256598	8.46888600	7.40073800
8.41756598	8.52992300	7.40073800
8.42256598	11.30711000	4.85244300
8.42756598	11.36814000	3.67748000
8.43256598	8.81984900	3.90636900
8.43756598	7.58384900	3.96740600
8.44256598	7.58384900	3.96740600
8.44756598	8.75881200	3.90636900
8.45256598	11.07822000	3.67748000
8.45756598	12.19214000	4.79140600
8.46256598	11.96325000	7.11081200
8.46756598	11.96325000	8.22473800
8.47256598	12.19214000	7.99584900
8.47756598	11.01718000	7.93481200
8.48256598	8.46888600	7.93481200
8.48756598	8.46888600	7.93481200
8.49256598	11.01718000	7.93481200
8.49756598	12.25318000	7.93481200
8.50256598	12.25318000	7.93481200
8.50756598	11.07822000	7.99584900
8.51256598	8.75881200	8.22473800
8.51756598	7.58384900	7.04977500
8.52256598	7.58384900	4.50148000
8.52756598	8.81984900	4.50148000
8.53256598	11.36814000	7.04977500
8.53756598	11.30711000	8.22473800
8.54256598	8.52992300	7.99584900
8.54756598	8.46888600	7.99584900
8.55256597	11.01718000	8.22473800
8.55756597	12.25318000	7.11081200
8.56256597	12.25318000	4.79140600
8.56756597	11.01718000	3.61644300
8.57256597	8.46888600	3.61644300
8.57756597	8.52992300	4.79140600
8.58256597	11.30711000	7.11081200
8.58756597	11.30711000	8.22473800
8.59256597	8.52992300	7.99584900
8.59756597	8.46888600	7.93481200
8.60256597	11.01718000	7.93481200
8.60756597	12.25318000	7.99584900
8.61256597	12.25318000	8.22473800
8.61756597	11.07822000	7.11081200
8.62256597	8.75881200	4.79140600
8.62756597	7.64488600	3.61644300
8.63256597	7.87377500	3.61644300
8.63756597	7.87377500	4.85244300
8.64256597	7.64488600	7.40073800
8.64756597	8.75881200	7.33970100
8.65256597	11.07822000	4.56251700
8.65756597	12.19214000	4.50148000
8.66256597	11.96325000	7.04977500
8.66756597	11.90222000	8.22473800
8.67256597	11.90222000	7.99584900
8.67756597	11.96325000	7.93481200
8.68256597	12.19214000	7.93481200
8.68756597	11.07822000	7.93481200
8.69256597	8.75881200	7.93481200
8.69756597	7.64488600	7.93481200
8.70256597	7.87377500	7.93481200
8.70756597	7.93481200	7.93481200
8.71256597	7.93481200	7.93481200
8.71756597	7.87377500	7.93481200
8.72256597	7.64488600	7.93481200
8.72756597	8.81984900	7.93481200
8.73256597	11.36814000	7.93481200
8.73756597	11.30711000	7.93481200
8.74256597	8.52992300	7.93481200
8.74756597	8.52992300	7.93481200
8.75256597	11.30711000	7.93481200
8.75756597	11.30711000	7.93481200
8.76256597	8.52992300	7.93481200
8.76756597	8.52992300	7.93481200
8.77256597	11.30711000	7.93481200
8.77756597	11.36814000	7.93481200
8.78256597	8.81984900	7.93481200
8.78756597	7.64488600	7.93481200
8.79256597	7.87377500	7.93481200
8.79756597	7.93481200	7.93481200
8.80256597	7.93481200	7.93481200
8.80756597	7.93481200	7.93481200
8.81256597	7.93481200	7.93481200
8.81756597	7.93481200	7.93481200
8.82256597	7.93481200	7.93481200
8.82756597	7.93481200	7.93481200
8.83256597	7.93481200	7.93481200
8.83756597	7.93481200	7.93481200
8.84256597	7.93481200	7.93481200
8.84756597	7.87377500	7.93481200
8.85256597	7.64488600	7.93481200
8.85756597	8.81984900	7.93481200
8.86256597	11.36814000	7.93481200
8.86756597	11.36814000	7.93481200
8.87256597	8.81984900	7.93481200
8.87756597	7.64488600	7.93481200
8.88256597	7.87377500	7.93481200
8.88756597	7.93481200	7.93481200
8.89256597	7.93481200	7.93481200
8.89756597	7.87377500	7.93481200
8.90256597	7.64488600	7.93481200
8.90756597	8.81984900	7.93481200
8.91256597	11.36814000	7.93481200
8.91756597	11.36814000	7.93481200
8.92256597	8.81984900	7.93481200
8.92756597	7.64488600	7.93481200
8.93256597	7.87377500	7.93481200
8.93756597	7.93481200	7.93481200
8.94256597	7.93481200	7.93481200
8.94756597	7.93481200	7.93481200
8.95256597	7.93481200	7.93481200
8.95756597	7.93481200	7.93481200
8.96256597	7.93481200	7.93481200
8.96756597	7.87377500	7.93481200
8.97256597	7.64488600	7.93481200
8.97756597	8.81984900	7.93481200
8.98256597	11.36814000	7.93481200
8.98756597	11.36814000	7.93481200
8.99256597	8.81984900	7.93481200
8.99756597	7.58384900	7.93481200
9.00256597	7.58384900	7.93481200
9.00756597	8.81984900	7.93481200
9.01256597	11.36814000	7.93481200
9.01756597	11.36814000	7.93481200
9.02256597	8.81984900	7.93481200
