Time	Channel A	Channel B
(us)	(mV)	(mV)

-1.00716197	-11.90222000	-15.86962000
-1.00216197	-11.90222000	-15.86962000
-0.99716197	-11.90222000	-15.86962000
-0.99216197	-11.90222000	-15.86962000
-0.98716197	-11.90222000	-15.86962000
-0.98216197	-11.90222000	-15.86962000
-0.97716197	-11.90222000	-15.86962000
-0.97216197	-11.90222000	-15.86962000
-0.96716197	-11.90222000	-15.86962000
-0.96216197	-11.90222000	-15.86962000
-0.95716197	-11.90222000	-15.86962000
-0.95216197	-11.90222000	-15.86962000
-0.94716197	-11.90222000	-15.86962000
-0.94216197	-11.90222000	-15.86962000
-0.93716197	-11.90222000	-15.86962000
-0.93216197	-11.90222000	-15.86962000
-0.92716197	-11.90222000	-15.93066000
-0.92216197	-11.90222000	-16.15955000
-0.91716197	-11.90222000	-14.98459000
-0.91216197	-11.90222000	-12.43629000
-0.90716197	-11.90222000	-12.43629000
-0.90216197	-11.90222000	-14.98459000
-0.89716197	-11.90222000	-16.15955000
-0.89216197	-11.90222000	-15.93066000
-0.88716197	-11.90222000	-15.86962000
-0.88216197	-11.90222000	-15.86962000
-0.87716197	-11.90222000	-15.86962000
-0.87216197	-11.90222000	-15.86962000
-0.86716197	-11.90222000	-15.86962000
-0.86216197	-11.90222000	-15.86962000
-0.85716197	-11.90222000	-15.86962000
-0.85216197	-11.90222000	-15.86962000
-0.84716197	-11.90222000	-15.86962000
-0.84216197	-11.90222000	-15.86962000
-0.83716197	-11.90222000	-15.86962000
-0.83216197	-11.90222000	-15.86962000
-0.82716197	-11.90222000	-15.86962000
-0.82216197	-11.90222000	-15.86962000
-0.81716197	-11.90222000	-15.86962000
-0.81216197	-11.90222000	-15.86962000
-0.80716197	-11.90222000	-15.86962000
-0.80216197	-11.90222000	-15.86962000
-0.79716197	-11.90222000	-15.86962000
-0.79216197	-11.90222000	-15.86962000
-0.78716197	-11.90222000	-15.86962000
-0.78216197	-11.90222000	-15.86962000
-0.77716197	-11.90222000	-15.86962000
-0.77216197	-11.90222000	-15.86962000
-0.76716197	-11.90222000	-15.86962000
-0.76216197	-11.90222000	-15.86962000
-0.75716197	-11.90222000	-15.86962000
-0.75216197	-11.90222000	-15.86962000
-0.74716197	-11.90222000	-15.86962000
-0.74216197	-11.90222000	-15.86962000
-0.73716197	-11.90222000	-15.86962000
-0.73216197	-11.90222000	-15.86962000
-0.72716197	-11.90222000	-15.86962000
-0.72216197	-11.90222000	-15.86962000
-0.71716197	-11.90222000	-15.86962000
-0.71216197	-11.90222000	-15.86962000
-0.70716197	-11.90222000	-15.86962000
-0.70216197	-11.90222000	-15.86962000
-0.69716197	-11.90222000	-15.86962000
-0.69216197	-11.90222000	-15.86962000
-0.68716197	-11.90222000	-15.93066000
-0.68216197	-11.90222000	-16.15955000
-0.67716197	-11.90222000	-14.98459000
-0.67216197	-11.90222000	-12.43629000
-0.66716197	-11.90222000	-12.49733000
-0.66216197	-11.90222000	-15.27451000
-0.65716197	-11.90222000	-15.27451000
-0.65216197	-11.90222000	-12.49733000
-0.64716197	-11.90222000	-12.43629000
-0.64216197	-11.90222000	-14.98459000
-0.63716197	-11.90222000	-16.15955000
-0.63216197	-11.90222000	-15.93066000
-0.62716197	-11.90222000	-15.86962000
-0.62216197	-11.90222000	-15.86962000
-0.61716197	-11.90222000	-15.86962000
-0.61216197	-11.90222000	-15.86962000
-0.60716197	-11.90222000	-15.86962000
-0.60216197	-11.90222000	-15.86962000
-0.59716197	-11.90222000	-15.86962000
-0.59216197	-11.90222000	-15.86962000
-0.58716197	-11.90222000	-15.86962000
-0.58216197	-11.90222000	-15.86962000
-0.57716197	-11.90222000	-15.86962000
-0.57216197	-11.90222000	-15.86962000
-0.56716197	-11.90222000	-15.80859000
-0.56216197	-11.90222000	-15.57970000
-0.55716197	-11.90222000	-16.75466000
-0.55216197	-11.90222000	-19.30296000
-0.54716197	-11.90222000	-19.30296000
-0.54216197	-11.90222000	-16.75466000
-0.53716197	-11.90222000	-15.57970000
-0.53216197	-11.90222000	-15.80859000
-0.52716197	-11.90222000	-15.86962000
-0.52216197	-11.90222000	-15.86962000
-0.51716197	-11.90222000	-15.86962000
-0.51216197	-11.90222000	-15.86962000
-0.50716197	-11.90222000	-15.86962000
-0.50216197	-11.90222000	-15.86962000
-0.49716197	-11.90222000	-15.86962000
-0.49216197	-11.90222000	-15.86962000
-0.48716197	-11.90222000	-15.86962000
-0.48216197	-11.90222000	-15.86962000
-0.47716197	-11.90222000	-15.86962000
-0.47216197	-11.90222000	-15.86962000
-0.46716197	-11.90222000	-15.86962000
-0.46216197	-11.90222000	-15.86962000
-0.45716197	-11.90222000	-15.86962000
-0.45216197	-11.90222000	-15.86962000
-0.44716197	-11.90222000	-15.86962000
-0.44216197	-11.90222000	-15.86962000
-0.43716197	-11.90222000	-15.86962000
-0.43216197	-11.90222000	-15.86962000
-0.42716197	-11.90222000	-15.86962000
-0.42216197	-11.90222000	-15.86962000
-0.41716197	-11.90222000	-15.86962000
-0.41216197	-11.90222000	-15.86962000
-0.40716197	-11.90222000	-15.86962000
-0.40216197	-11.90222000	-15.86962000
-0.39716197	-11.90222000	-15.86962000
-0.39216197	-11.90222000	-15.86962000
-0.38716197	-11.90222000	-15.86962000
-0.38216197	-11.90222000	-15.86962000
-0.37716197	-11.90222000	-15.86962000
-0.37216197	-11.90222000	-15.86962000
-0.36716197	-11.90222000	-15.86962000
-0.36216197	-11.90222000	-15.86962000
-0.35716197	-11.90222000	-15.86962000
-0.35216197	-11.90222000	-15.86962000
-0.34716197	-11.90222000	-15.86962000
-0.34216197	-11.90222000	-15.86962000
-0.33716197	-11.90222000	-15.86962000
-0.33216197	-11.90222000	-15.86962000
-0.32716197	-11.90222000	-15.86962000
-0.32216197	-11.90222000	-15.86962000
-0.31716197	-11.90222000	-15.86962000
-0.31216197	-11.90222000	-15.86962000
-0.30716197	-11.90222000	-15.86962000
-0.30216197	-11.90222000	-15.86962000
-0.29716197	-11.84118000	-15.86962000
-0.29216197	-11.61229000	-15.86962000
-0.28716197	-12.78725000	-15.86962000
-0.28216197	-15.33555000	-15.86962000
-0.27716197	-15.33555000	-15.80859000
-0.27216197	-12.78725000	-15.57970000
-0.26716197	-11.61229000	-16.75466000
-0.26216197	-11.84118000	-19.30296000
-0.25716197	-11.90222000	-19.30296000
-0.25216197	-11.90222000	-16.75466000
-0.24716197	-11.90222000	-15.57970000
-0.24216197	-11.90222000	-15.80859000
-0.23716197	-11.90222000	-15.86962000
-0.23216197	-11.90222000	-15.86962000
-0.22716197	-11.90222000	-15.86962000
-0.22216197	-11.90222000	-15.86962000
-0.21716197	-11.90222000	-15.86962000
-0.21216197	-11.90222000	-15.86962000
-0.20716197	-11.90222000	-15.86962000
-0.20216197	-11.90222000	-15.86962000
-0.19716197	-11.90222000	-15.86962000
-0.19216197	-11.90222000	-15.86962000
-0.18716197	-11.90222000	-15.86962000
-0.18216197	-11.90222000	-15.86962000
-0.17716197	-11.90222000	-15.86962000
-0.17216197	-11.90222000	-15.86962000
-0.16716197	-11.90222000	-15.86962000
-0.16216197	-11.90222000	-15.86962000
-0.15716197	-11.90222000	-15.86962000
-0.15216197	-11.90222000	-15.86962000
-0.14716197	-11.90222000	-15.86962000
-0.14216197	-11.90222000	-15.86962000
-0.13716197	-11.90222000	-15.86962000
-0.13216197	-11.90222000	-15.86962000
-0.12716197	-12.02429000	-15.80859000
-0.12216197	-12.48207000	-15.57970000
-0.11716197	-10.36103000	-16.69362000
-0.11216197	-6.21051600	-19.01303000
-0.10716197	-1.84637000	-20.06592000
-0.10216197	1.84637000	-19.60814000
-0.09716197	6.02740500	-20.66103000
-0.09216197	9.49125600	-22.98043000
-0.08716197	14.84725000	-24.09436000
-0.08216197	20.85940000	-23.86547000
-0.07716197	26.15436000	-23.74340000
-0.07216197	29.38932000	-23.51451000
-0.06716197	34.68428000	-24.62844000
-0.06216197	40.69643000	-26.94784000
-0.05716197	45.99139000	-28.06177000
-0.05216197	49.22635000	-27.83288000
-0.04716197	54.52132000	-27.77184000
-0.04216197	60.53346000	-27.77184000
-0.03716197	65.82842000	-27.77184000
-0.03216197	69.07864000	-27.77184000
-0.02716197	74.37360000	-27.77184000
-0.02216197	80.38575000	-27.77184000
-0.01716197	85.68071000	-27.77184000
-0.01216197	88.91567000	-27.77184000
-0.00716197	94.21063000	-27.77184000
-0.00216197	100.22280000	-27.77184000
0.00283803	105.57880000	-27.77184000
0.00783803	109.04260000	-27.77184000
0.01283803	113.16260000	-27.77184000
0.01783803	116.62650000	-27.77184000
0.02283803	121.98250000	-27.77184000
0.02783803	127.99460000	-27.77184000
0.03283803	133.35060000	-27.77184000
0.03783803	136.81450000	-27.77184000
0.04283803	140.99550000	-27.77184000
0.04783803	144.70350000	-27.77184000
0.05283803	148.94560000	-27.77184000
0.05783803	152.63830000	-27.77184000
0.06283803	156.81940000	-27.77184000
0.06783803	160.28320000	-27.77184000
0.07283803	165.70020000	-27.77184000
0.07783803	171.94130000	-27.77184000
0.08283803	176.18330000	-27.77184000
0.08783803	177.32780000	-27.77184000
0.09283803	180.45590000	-27.77184000
0.09783803	184.60640000	-27.77184000
0.10283803	187.79560000	-27.77184000
0.10783803	189.16900000	-27.77184000
0.11283803	192.29710000	-27.77184000
0.11783803	196.21880000	-27.77184000
0.12283803	200.64390000	-27.77184000
0.12783803	204.79440000	-27.77184000
0.13283803	206.80870000	-27.77184000
0.13783803	205.86260000	-27.77184000
0.14283803	207.93790000	-27.77184000
0.14783803	212.33250000	-27.77184000
0.15283803	215.64380000	-27.77184000
0.15783803	217.24600000	-27.77184000
0.16283803	219.30600000	-27.77184000
0.16783803	221.16760000	-27.77184000
0.17283803	223.27340000	-27.77184000
0.17783803	225.13500000	-27.77184000
0.18283803	227.24080000	-27.77184000
0.18783803	229.10240000	-27.77184000
0.19283803	231.26930000	-27.71080000
0.19783803	233.35980000	-27.48192000
0.20283803	234.35160000	-28.59584000
0.20783803	233.89380000	-30.91525000
0.21283803	234.94670000	-32.09021000
0.21783803	237.26610000	-32.09021000
0.22283803	238.31900000	-30.91525000
0.22783803	237.86130000	-28.59584000
0.23283803	238.85310000	-27.42088000
0.23783803	240.94360000	-27.42088000
0.24283803	243.17150000	-28.65688000
0.24783803	245.26200000	-31.20517000
0.25283803	246.31490000	-31.20517000
0.25783803	246.08600000	-28.65688000
0.26283803	246.02490000	-27.48192000
0.26783803	246.02490000	-27.71080000
0.27283803	245.96390000	-27.77184000
0.27783803	245.73500000	-27.77184000
0.28283803	246.84900000	-27.71080000
0.28783802	249.16840000	-27.48192000
0.29283802	250.28230000	-28.65688000
0.29783802	250.05340000	-31.20517000
0.30283802	249.99240000	-31.14414000
0.30783802	249.99240000	-28.36695000
0.31283802	249.99240000	-28.30592000
0.31783802	249.99240000	-30.85421000
0.32283802	249.93130000	-32.02917000
0.32783802	249.70240000	-31.80028000
0.33283802	250.81640000	-31.73925000
0.33783802	253.13580000	-31.73925000
0.34283802	254.24970000	-31.73925000
0.34783802	254.02080000	-31.73925000
0.35283802	253.95980000	-31.73925000
0.35783802	253.95980000	-31.73925000
0.36283802	253.95980000	-31.73925000
0.36783802	253.95980000	-31.73925000
0.37283802	253.95980000	-31.73925000
0.37783802	253.95980000	-31.73925000
0.38283802	253.95980000	-31.73925000
0.38783802	253.95980000	-31.73925000
0.39283802	253.95980000	-31.73925000
0.39783802	253.95980000	-31.73925000
0.40283802	253.95980000	-31.73925000
0.40783802	253.95980000	-31.73925000
0.41283802	253.95980000	-31.80028000
0.41783802	253.95980000	-32.02917000
0.42283802	253.89870000	-30.85421000
0.42783802	253.66980000	-28.30592000
0.43283802	254.84480000	-28.36695000
0.43783802	257.39310000	-31.14414000
0.44283802	257.39310000	-31.20517000
0.44783802	254.84480000	-28.65688000
0.45283802	253.66980000	-27.48192000
0.45783802	253.89870000	-27.71080000
0.46283802	253.95980000	-27.77184000
0.46783802	253.95980000	-27.77184000
0.47283802	253.95980000	-27.77184000
0.47783802	253.95980000	-27.77184000
0.48283802	253.95980000	-27.77184000
0.48783802	253.95980000	-27.77184000
0.49283802	254.02080000	-27.77184000
0.49783802	254.24970000	-27.77184000
0.50283802	253.13580000	-27.77184000
0.50783802	250.81640000	-27.77184000
0.51283802	249.76350000	-27.77184000
0.51783802	250.22120000	-27.77184000
0.52283802	249.16840000	-27.83288000
0.52783802	246.84900000	-28.06177000
0.53283802	245.79610000	-26.88680000
0.53783802	246.25380000	-24.33851000
0.54283802	245.26200000	-24.39955000
0.54783802	243.17150000	-27.17673000
0.55283802	240.94360000	-27.23777000
0.55783802	238.85310000	-24.68947000
0.56283802	237.86130000	-23.45347000
0.56783802	238.31900000	-23.45347000
0.57283802	237.32720000	-24.68947000
0.57783802	235.23670000	-27.23777000
0.58283802	233.06980000	-27.23777000
0.58783802	231.20820000	-24.68947000
0.59283802	229.04140000	-23.51451000
0.59783802	226.95090000	-23.74340000
0.60283802	225.89800000	-23.80444000
0.60783802	226.12690000	-23.80444000
0.61283802	226.24890000	-23.80444000
0.61783802	226.47780000	-23.80444000
0.62283802	225.42500000	-23.80444000
0.62783802	223.33440000	-23.80444000
0.63283802	221.10660000	-23.80444000
0.63783802	219.01610000	-23.80444000
0.64283802	218.02420000	-23.80444000
0.64783802	218.48200000	-23.80444000
0.65283802	217.42910000	-23.80444000
0.65783802	215.10970000	-23.80444000
0.66283802	214.05680000	-23.86547000
0.66783802	214.51460000	-24.09436000
0.67283802	213.46170000	-22.98043000
0.67783802	211.12700000	-20.66103000
0.68283802	210.01310000	-19.54710000
0.68783802	210.24200000	-19.77599000
0.69283802	210.36410000	-19.77599000
0.69783802	210.59300000	-19.54710000
0.70283802	209.47900000	-20.72207000
0.70783802	207.15960000	-23.27036000
0.71283802	206.10670000	-23.27036000
0.71783802	206.56450000	-20.72207000
0.72283802	205.51160000	-19.48607000
0.72783802	203.19220000	-19.48607000
0.73283802	202.07830000	-20.66103000
0.73783802	202.30720000	-22.98043000
0.74283802	202.36820000	-24.09436000
0.74783802	202.36820000	-23.86547000
0.75283802	202.42930000	-23.80444000
0.75783802	202.65810000	-23.80444000
0.76283802	201.54420000	-23.80444000
0.76783802	199.22480000	-23.80444000
0.77283802	198.11090000	-23.86547000
0.77783802	198.33980000	-24.09436000
0.78283802	198.46190000	-22.98043000
0.78783802	198.69080000	-20.66103000
0.79283802	197.57680000	-19.48607000
0.79783802	195.25740000	-19.48607000
0.80283802	194.14350000	-20.72207000
0.80783802	194.37240000	-23.27036000
0.81283802	194.49440000	-23.27036000
0.81783802	194.72330000	-20.72207000
0.82283802	193.60940000	-19.54710000
0.82783802	191.29000000	-19.77599000
0.83283802	190.17610000	-19.83703000
0.83783802	190.40500000	-19.83703000
0.84283802	190.46600000	-19.83703000
0.84783802	190.46600000	-19.83703000
0.85283802	190.46600000	-19.77599000
0.85783802	190.46600000	-19.54710000
0.86283802	190.52700000	-20.72207000
0.86783802	190.75590000	-23.27036000
0.87283802	189.64200000	-23.27036000
0.87783802	187.32260000	-20.72207000
0.88283802	186.20870000	-19.54710000
0.88783802	186.43760000	-19.77599000
0.89283802	186.55960000	-19.83703000
0.89783802	186.78850000	-19.83703000
0.90283802	185.67460000	-19.83703000
0.90783802	183.35520000	-19.83703000
0.91283802	182.24130000	-19.83703000
0.91783802	182.47020000	-19.83703000
0.92283802	182.59220000	-19.83703000
0.92783802	182.82110000	-19.83703000
0.93283802	181.70720000	-19.83703000
0.93783802	179.38780000	-19.83703000
0.94283802	178.27390000	-19.83703000
0.94783802	178.50280000	-19.83703000
0.95283802	178.56380000	-19.83703000
0.95783802	178.56380000	-19.83703000
0.96283802	178.56380000	-19.83703000
0.96783802	178.56380000	-19.83703000
0.97283802	178.62480000	-19.83703000
0.97783802	178.85370000	-19.83703000
0.98283802	177.73980000	-19.83703000
0.98783802	175.42040000	-19.83703000
0.99283802	174.30650000	-19.83703000
0.99783802	174.53530000	-19.83703000
1.00283802	174.59640000	-19.83703000
1.00783802	174.59640000	-19.83703000
1.01283802	174.65740000	-19.83703000
1.01783802	174.88630000	-19.83703000
1.02283802	173.77240000	-19.83703000
1.02783802	171.45300000	-19.83703000
1.03283802	170.33910000	-19.83703000
1.03783802	170.56790000	-19.83703000
1.04283802	170.62900000	-19.83703000
1.04783802	170.62900000	-19.83703000
1.05283802	170.69000000	-19.83703000
1.05783802	170.91890000	-19.83703000
1.06283802	169.80500000	-19.83703000
1.06783802	167.48560000	-19.83703000
1.07283802	166.37160000	-19.83703000
1.07783802	166.60050000	-19.83703000
1.08283802	166.66160000	-19.83703000
1.08783802	166.66160000	-19.83703000
1.09283802	166.66160000	-19.83703000
1.09783802	166.66160000	-19.83703000
1.10283802	166.72260000	-19.83703000
1.10783802	166.95150000	-19.83703000
1.11283802	165.83760000	-19.83703000
1.11783802	163.51820000	-19.83703000
1.12283802	162.40430000	-19.83703000
1.12783802	162.63310000	-19.83703000
1.13283802	162.75520000	-19.83703000
1.13783802	162.98410000	-19.83703000
1.14283802	161.87020000	-19.83703000
1.14783802	159.55080000	-19.83703000
1.15283802	158.43680000	-19.83703000
1.15783802	158.66570000	-19.83703000
1.16283802	158.72680000	-19.83703000
1.16783802	158.72680000	-19.83703000
1.17283802	158.72680000	-19.83703000
1.17783802	158.72680000	-19.83703000
1.18283802	158.72680000	-19.83703000
1.18783802	158.72680000	-19.83703000
1.19283802	158.78780000	-19.83703000
1.19783802	159.01670000	-19.83703000
1.20283802	157.90280000	-19.83703000
1.20783802	155.58340000	-19.83703000
1.21283802	154.46940000	-19.83703000
1.21783802	154.69830000	-19.83703000
1.22283802	154.75940000	-19.83703000
1.22783802	154.75940000	-19.83703000
1.23283802	154.82040000	-19.83703000
1.23783802	155.04930000	-19.83703000
1.24283802	153.93530000	-19.83703000
1.24783802	151.61590000	-19.83703000
1.25283802	150.50200000	-19.83703000
1.25783802	150.73090000	-19.83703000
1.26283802	150.85300000	-19.83703000
1.26783802	151.08190000	-19.83703000
1.27283802	149.96790000	-19.83703000
1.27783802	147.64850000	-19.83703000
1.28283802	146.53460000	-19.83703000
1.28783802	146.76350000	-19.83703000
1.29283802	146.82450000	-19.89807000
1.29783802	146.82450000	-20.12696000
1.30283802	146.82450000	-18.95199000
1.30783802	146.82450000	-16.40370000
1.31283802	146.88560000	-16.46474000
1.31783802	147.11450000	-19.24192000
1.32283802	146.00050000	-19.24192000
1.32783802	143.68110000	-16.46474000
1.33283802	142.50620000	-16.40370000
1.33783802	142.50620000	-18.95199000
1.34283802	143.74220000	-20.12696000
1.34783802	146.29050000	-19.89807000
1.35283802	146.29050000	-19.83703000
1.35783802	143.74220000	-19.83703000
1.36283802	142.56720000	-19.83703000
1.36783802	142.79610000	-19.83703000
1.37283802	142.91820000	-19.83703000
1.37783802	143.14710000	-19.83703000
1.38283802	142.03310000	-19.83703000
1.38783802	139.69850000	-19.83703000
1.39283802	138.58450000	-19.83703000
1.39783802	138.81340000	-19.83703000
1.40283802	138.87450000	-19.83703000
1.40783802	138.87450000	-19.83703000
1.41283802	138.87450000	-19.83703000
1.41783802	138.87450000	-19.83703000
1.42283802	138.93550000	-19.83703000
1.42783802	139.16440000	-19.83703000
1.43283802	138.05050000	-19.83703000
1.43783802	135.73110000	-19.83703000
1.44283802	134.61710000	-19.83703000
1.44783802	134.84600000	-19.83703000
1.45283802	134.90710000	-19.83703000
1.45783802	134.90710000	-19.83703000
1.46283802	134.96810000	-19.89807000
1.46783802	135.19700000	-20.12696000
1.47283802	134.02200000	-18.95199000
1.47783802	131.47370000	-16.40370000
1.48283802	131.53480000	-16.40370000
1.48783802	134.31200000	-18.95199000
1.49283802	134.37300000	-20.12696000
1.49783802	131.82470000	-19.89807000
1.50283802	130.64970000	-19.89807000
1.50783802	130.87860000	-20.12696000
1.51283802	131.00070000	-18.95199000
1.51783802	131.22960000	-16.40370000
1.52283802	130.05460000	-16.46474000
1.52783802	127.50630000	-19.24192000
1.53283802	127.56740000	-19.24192000
1.53783802	130.34450000	-16.46474000
1.54283802	130.40560000	-16.46474000
1.54783802	127.85730000	-19.24192000
1.55283802	126.68230000	-19.24192000
1.55783802	126.91120000	-16.46474000
1.56283802	127.03330000	-16.40370000
1.56783802	127.26220000	-18.95199000
1.57283802	126.08720000	-20.12696000
1.57783802	123.53890000	-19.89807000
1.58283802	123.60000000	-19.83703000
1.58783802	126.37710000	-19.83703000
1.59283802	126.43820000	-19.83703000
1.59783802	123.88990000	-19.83703000
1.60283802	122.71490000	-19.83703000
1.60783802	122.94380000	-19.83703000
1.61283802	123.00480000	-19.83703000
1.61783802	123.00480000	-19.83703000
1.62283802	123.00480000	-19.83703000
1.62783802	123.00480000	-19.83703000
1.63283802	123.06590000	-19.83703000
1.63783802	123.29480000	-19.83703000
1.64283802	122.18080000	-19.83703000
1.64783802	119.86140000	-19.83703000
1.65283802	118.74750000	-19.83703000
1.65783802	118.97640000	-19.83703000
1.66283802	119.03740000	-19.83703000
1.66783802	119.03740000	-19.83703000
1.67283802	119.03740000	-19.83703000
1.67783802	119.03740000	-19.83703000
1.68283802	119.03740000	-19.83703000
1.68783802	119.03740000	-19.83703000
1.69283802	119.09850000	-19.89807000
1.69783802	119.32740000	-20.12696000
1.70283802	118.21340000	-19.01303000
1.70783802	115.89400000	-16.69362000
1.71283802	114.78010000	-15.57970000
1.71783802	115.00900000	-15.80859000
1.72283802	115.07000000	-15.80859000
1.72783802	115.07000000	-15.57970000
1.73283802	115.07000000	-16.75466000
1.73783802	115.07000000	-19.30296000
1.74283802	115.13110000	-19.30296000
1.74783802	115.36000000	-16.75466000
1.75283802	114.24600000	-15.57970000
1.75783802	111.92660000	-15.80859000
1.76283802	110.81270000	-15.80859000
1.76783802	111.04160000	-15.57970000
1.77283802	111.10260000	-16.75466000
1.77783802	111.10260000	-19.30296000
1.78283802	111.10260000	-19.24192000
1.78783802	111.10260000	-16.46474000
1.79283802	111.10260000	-16.40370000
1.79783802	111.10260000	-18.95199000
1.80283802	111.10260000	-20.12696000
1.80783802	111.10260000	-19.89807000
1.81283802	111.16370000	-19.83703000
1.81783802	111.39250000	-19.83703000
1.82283802	110.27860000	-19.83703000
1.82783802	107.95920000	-19.83703000
1.83283802	106.84530000	-19.83703000
1.83783802	107.07420000	-19.83703000
1.84283802	107.13520000	-19.83703000
1.84783802	107.13520000	-19.83703000
1.85283802	107.19630000	-19.83703000
1.85783802	107.42510000	-19.83703000
1.86283802	106.25020000	-19.89807000
1.86783802	103.70190000	-20.12696000
1.87283802	103.76290000	-19.01303000
1.87783802	106.54010000	-16.69362000
1.88283802	106.60120000	-15.57970000
1.88783802	104.05280000	-15.80859000
1.89283802	102.87790000	-15.86962000
1.89783802	103.10680000	-15.86962000
1.90283802	103.16780000	-15.80859000
1.90783802	103.16780000	-15.57970000
1.91283802	103.16780000	-16.75466000
1.91783802	103.16780000	-19.30296000
1.92283802	103.16780000	-19.30296000
1.92783802	103.16780000	-16.75466000
1.93283801	103.22890000	-15.51866000
1.93783801	103.45770000	-15.51866000
1.94283801	102.34380000	-16.69362000
1.94783801	100.02440000	-19.01303000
1.95283801	98.91048000	-20.12696000
1.95783801	99.13937000	-19.89807000
1.96283801	99.20041000	-19.89807000
1.96783801	99.20041000	-20.12696000
1.97283801	99.20041000	-18.95199000
1.97783801	99.20041000	-16.40370000
1.98283801	99.20041000	-16.46474000
1.98783801	99.20041000	-19.24192000
1.99283801	99.26145000	-19.30296000
1.99783801	99.49034000	-16.75466000
2.00283801	98.37641000	-15.51866000
2.00783801	96.05700000	-15.51866000
2.01283801	94.94308000	-16.75466000
2.01783801	95.17197000	-19.30296000
2.02283801	95.23300000	-19.24192000
2.02783801	95.23300000	-16.46474000
2.03283801	95.23300000	-16.46474000
2.03783801	95.23300000	-19.24192000
2.04283801	95.23300000	-19.30296000
2.04783801	95.23300000	-16.75466000
2.05283801	95.23300000	-15.51866000
2.05783801	95.23300000	-15.51866000
2.06283801	95.23300000	-16.75466000
2.06783801	95.23300000	-19.30296000
2.07283801	95.29404000	-19.30296000
2.07783801	95.52293000	-16.75466000
2.08283801	94.34796000	-15.57970000
2.08783801	91.79967000	-15.80859000
2.09283801	91.86070000	-15.86962000
2.09783801	94.63789000	-15.86962000
2.10283801	94.69893000	-15.80859000
2.10783801	92.15063000	-15.57970000
2.11283801	90.97568000	-16.69362000
2.11783801	91.20457000	-19.01303000
2.12283801	91.26560000	-20.18799000
2.12783801	91.26560000	-20.18799000
2.13283801	91.26560000	-19.01303000
2.13783801	91.26560000	-16.69362000
2.14283801	91.32664000	-15.57970000
2.14783801	91.55552000	-15.80859000
2.15283801	90.44160000	-15.86962000
2.15783801	88.12219000	-15.86962000
2.16283801	87.00826000	-15.86962000
2.16783801	87.23715000	-15.86962000
2.17283801	87.29819000	-15.86962000
2.17783801	87.29819000	-15.86962000
2.18283801	87.29819000	-15.86962000
2.18783801	87.29819000	-15.86962000
2.19283801	87.29819000	-15.86962000
2.19783801	87.29819000	-15.86962000
2.20283801	87.29819000	-15.86962000
2.20783801	87.29819000	-15.86962000
2.21283801	87.35923000	-15.80859000
2.21783801	87.58812000	-15.57970000
2.22283801	86.41315000	-16.69362000
2.22783801	83.86486000	-19.01303000
2.23283801	83.92590000	-20.12696000
2.23783801	86.70308000	-19.89807000
2.24283801	86.76411000	-19.83703000
2.24783801	84.21582000	-19.83703000
2.25283801	83.04086000	-19.83703000
2.25783801	83.26974000	-19.83703000
2.26283801	83.33078000	-19.83703000
2.26783801	83.33078000	-19.83703000
2.27283801	83.33078000	-19.83703000
2.27783801	83.33078000	-19.83703000
2.28283801	83.33078000	-19.89807000
2.28783801	83.33078000	-20.12696000
2.29283801	83.33078000	-19.01303000
2.29783801	83.33078000	-16.69362000
2.30283801	83.39182000	-15.57970000
2.30783801	83.62070000	-15.80859000
2.31283801	82.50678000	-15.86962000
2.31783801	80.18738000	-15.86962000
2.32283801	79.07346000	-15.86962000
2.32783801	79.30235000	-15.86962000
2.33283801	79.36338000	-15.86962000
2.33783801	79.36338000	-15.86962000
2.34283801	79.36338000	-15.86962000
2.34783801	79.36338000	-15.86962000
2.35283801	79.36338000	-15.80859000
2.35783801	79.36338000	-15.57970000
2.36283801	79.36338000	-16.69362000
2.36783801	79.36338000	-19.01303000
2.37283801	79.36338000	-20.12696000
2.37783801	79.36338000	-19.89807000
2.38283801	79.42442000	-19.83703000
2.38783801	79.65331000	-19.83703000
2.39283801	78.53938000	-19.83703000
2.39783801	76.21997000	-19.83703000
2.40283801	75.10605000	-19.83703000
2.40783801	75.33494000	-19.83703000
2.41283801	75.39597000	-19.83703000
2.41783801	75.39597000	-19.83703000
2.42283801	75.39597000	-19.83703000
2.42783801	75.39597000	-19.83703000
2.43283801	75.39597000	-19.83703000
2.43783801	75.39597000	-19.83703000
2.44283801	75.39597000	-19.83703000
2.44783801	75.39597000	-19.83703000
2.45283801	75.39597000	-19.83703000
2.45783801	75.39597000	-19.83703000
2.46283801	75.45701000	-19.83703000
2.46783801	75.68590000	-19.83703000
2.47283801	74.57197000	-19.83703000
2.47783801	72.25256000	-19.83703000
2.48283801	71.13864000	-19.83703000
2.48783801	71.36753000	-19.83703000
2.49283801	71.42857000	-19.83703000
2.49783801	71.42857000	-19.83703000
2.50283801	71.42857000	-19.83703000
2.50783801	71.42857000	-19.83703000
2.51283801	71.42857000	-19.83703000
2.51783801	71.42857000	-19.83703000
2.52283801	71.42857000	-19.83703000
2.52783801	71.42857000	-19.83703000
2.53283801	71.42857000	-19.83703000
2.53783801	71.42857000	-19.83703000
2.54283801	71.48961000	-19.83703000
2.54783801	71.71850000	-19.83703000
2.55283801	70.54353000	-19.83703000
2.55783801	67.97997000	-19.83703000
2.56283801	68.04102000	-19.83703000
2.56783801	70.83346000	-19.83703000
2.57283801	70.89449000	-19.83703000
2.57783801	68.33094000	-19.83703000
2.58283801	67.15598000	-19.83703000
2.58783801	67.38486000	-19.83703000
2.59283801	67.44590000	-19.83703000
2.59783801	67.44590000	-19.83703000
2.60283801	67.44590000	-19.83703000
2.60783801	67.44590000	-19.83703000
2.61283801	67.44590000	-19.83703000
2.61783801	67.44590000	-19.83703000
2.62283801	67.44590000	-19.83703000
2.62783801	67.44590000	-19.83703000
2.63283801	67.50694000	-19.89807000
2.63783801	67.73582000	-20.12696000
2.64283801	66.62190000	-18.95199000
2.64783801	64.30249000	-16.40370000
2.65283801	63.18857000	-16.46474000
2.65783801	63.41746000	-19.24192000
2.66283801	63.47850000	-19.24192000
2.66783801	63.47850000	-16.46474000
2.67283801	63.47850000	-16.46474000
2.67783801	63.47850000	-19.24192000
2.68283801	63.47850000	-19.30296000
2.68783801	63.47850000	-16.75466000
2.69283801	63.47850000	-15.51866000
2.69783801	63.47850000	-15.51866000
2.70283801	63.47850000	-16.75466000
2.70783801	63.47850000	-19.30296000
2.71283801	63.47850000	-19.30296000
2.71783801	63.47850000	-16.75466000
2.72283801	63.47850000	-15.57970000
2.72783801	63.47850000	-15.80859000
2.73283801	63.47850000	-15.80859000
2.73783801	63.47850000	-15.57970000
2.74283801	63.53953000	-16.69362000
2.74783801	63.76842000	-19.01303000
2.75283801	62.65450000	-20.18799000
2.75783801	60.33509000	-20.18799000
2.76283801	59.22116000	-18.95199000
2.76783801	59.45005000	-16.40370000
2.77283801	59.51109000	-16.40370000
2.77783801	59.51109000	-18.95199000
2.78283801	59.51109000	-20.12696000
2.78783801	59.51109000	-19.89807000
2.79283801	59.51109000	-19.83703000
2.79783801	59.51109000	-19.83703000
2.80283801	59.51109000	-19.83703000
2.80783801	59.51109000	-19.83703000
2.81283801	59.51109000	-19.89807000
2.81783801	59.51109000	-20.12696000
2.82283801	59.57213000	-18.95199000
2.82783801	59.80102000	-16.40370000
2.83283801	58.62605000	-16.40370000
2.83783801	56.07775000	-18.95199000
2.84283801	56.07775000	-20.12696000
2.84783801	58.62605000	-19.89807000
2.85283801	59.86205000	-19.89807000
2.85783801	59.86205000	-20.12696000
2.86283801	58.68709000	-18.95199000
2.86783801	56.36768000	-16.40370000
2.87283801	55.25376000	-16.46474000
2.87783801	55.48264000	-19.24192000
2.88283801	55.54368000	-19.24192000
2.88783801	55.54368000	-16.46474000
2.89283801	55.54368000	-16.46474000
2.89783801	55.54368000	-19.24192000
2.90283801	55.54368000	-19.30296000
2.90783801	55.54368000	-16.75466000
2.91283801	55.54368000	-15.57970000
2.91783801	55.54368000	-15.80859000
2.92283801	55.54368000	-15.86962000
2.92783801	55.54368000	-15.86962000
2.93283801	55.54368000	-15.86962000
2.93783801	55.54368000	-15.86962000
2.94283801	55.54368000	-15.86962000
2.94783801	55.54368000	-15.86962000
2.95283801	55.54368000	-15.86962000
2.95783801	55.54368000	-15.86962000
2.96283801	55.54368000	-15.93066000
2.96783801	55.54368000	-16.15955000
2.97283801	55.60472000	-15.10666000
2.97783801	55.83361000	-13.01614000
2.98283801	54.71968000	-10.89511000
2.98783801	52.40028000	-9.29288500
2.99283801	51.28635000	-6.16473900
2.99783801	51.51524000	-2.47199900
3.00283801	51.57627000	2.76192500
3.00783801	51.57627000	8.07214500
3.01283801	51.57627000	16.55629000
3.01783801	51.57627000	26.03229000
3.02283801	51.57627000	37.75139000
3.02783801	51.57627000	48.82961000
3.03283801	51.57627000	62.73079000
3.03783801	51.57627000	76.14368000
3.04283801	51.57627000	89.98383000
3.04783801	51.57627000	100.83320000
3.05283801	51.63731000	113.60510000
3.05783801	51.86620000	125.17170000
3.06283801	50.75228000	135.76160000
3.06783801	48.43287000	142.70450000
3.07283801	47.31895000	151.18870000
3.07783801	47.54784000	159.04720000
3.08283801	47.60887000	165.39510000
3.08783801	47.60887000	168.63000000
3.09283801	47.60887000	172.87210000
3.09783801	47.60887000	177.02260000
3.10283801	47.60887000	179.14360000
3.10783801	47.60887000	178.68590000
3.11283801	47.60887000	178.62480000
3.11783801	47.60887000	178.85370000
3.12283801	47.60887000	177.80080000
3.12783801	47.60887000	175.71030000
3.13283801	47.60887000	173.58930000
3.13783801	47.60887000	171.98700000
3.14283801	47.60887000	168.79790000
3.14783801	47.60887000	164.87620000
3.15283801	47.60887000	160.57310000
3.15783801	47.60887000	156.88040000
3.16283801	47.60887000	152.63830000
3.16783801	47.60887000	148.94560000
3.17283801	47.60887000	144.70350000
3.17783801	47.60887000	140.99550000
3.18283801	47.66991000	136.81450000
3.18783801	47.89880000	133.35060000
3.19283801	46.78487000	127.99460000
3.19783801	44.46547000	121.98250000
3.20283801	43.29050000	116.56540000
3.20783801	43.29050000	112.87270000
3.21283801	44.52650000	109.86660000
3.21783801	47.07480000	108.72220000
3.22283801	47.07480000	104.48010000
3.22783801	44.52650000	98.23907000
3.23283801	43.35154000	92.82204000
3.23783801	43.58043000	89.35819000
3.24283801	43.64147000	85.11612000
3.24783801	43.64147000	81.19450000
3.25283801	43.64147000	78.00531000
3.25783801	43.64147000	76.40308000
3.26283801	43.64147000	74.38886000
3.26783801	43.64147000	72.78664000
3.27283801	43.64147000	69.53642000
3.27783801	43.64147000	65.37064000
3.28283801	43.64147000	62.12042000
3.28783801	43.64147000	60.51820000
3.29283801	43.64147000	58.45820000
3.29783801	43.64147000	56.59657000
3.30283801	43.64147000	54.49080000
3.30783801	43.64147000	52.62917000
3.31283801	43.70250000	50.52339000
3.31783801	43.93139000	48.66176000
3.32283801	42.81747000	46.55598000
3.32783801	40.49806000	44.69436000
3.33283801	39.38414000	42.52754000
3.33783801	39.61302000	40.43702000
3.34283801	39.67406000	39.44517000
3.34783801	39.67406000	39.90295000
3.35283801	39.67406000	38.91110000
3.35783801	39.67406000	36.82058000
3.36283801	39.67406000	34.65377000
3.36783801	39.67406000	32.79214000
3.37283801	39.67406000	30.62532000
3.37783801	39.67406000	28.53481000
3.38283801	39.67406000	27.48192000
3.38783801	39.67406000	27.71080000
3.39283801	39.67406000	27.83288000
3.39783801	39.67406000	28.06177000
3.40283801	39.67406000	27.00888000
3.40783801	39.67406000	24.91836000
3.41283801	39.67406000	22.69051000
3.41783801	39.67406000	20.59999000
3.42283801	39.67406000	19.54710000
3.42783801	39.67406000	19.77599000
3.43283801	39.73510000	19.89807000
3.43783801	39.96399000	20.12696000
3.44283801	38.85006000	19.01303000
3.44783801	36.53065000	16.69362000
3.45283801	35.41673000	15.57970000
3.45783801	35.64562000	15.80859000
3.46283801	35.70665000	15.93066000
3.46783801	35.70665000	16.15955000
3.47283801	35.70665000	15.04562000
3.47783801	35.70665000	12.72622000
3.48283801	35.70665000	11.61229000
3.48783801	35.70665000	11.84118000
3.49283801	35.70665000	11.90222000
3.49783801	35.70665000	11.90222000
3.50283801	35.70665000	11.90222000
3.50783801	35.70665000	11.90222000
3.51283801	35.70665000	11.96325000
3.51783801	35.70665000	12.19214000
3.52283801	35.70665000	11.07822000
3.52783801	35.70665000	8.75881200
3.53283801	35.70665000	7.64488600
3.53783801	35.70665000	7.87377500
3.54283801	35.70665000	7.93481200
3.54783801	35.70665000	7.93481200
3.55283801	35.70665000	7.93481200
3.55783801	35.70665000	7.93481200
3.56283801	35.76769000	7.93481200
3.56783801	35.99658000	7.93481200
3.57283801	34.88266000	7.99584900
3.57783800	32.56325000	8.22473800
3.58283800	31.38828000	7.11081200
3.58783800	31.38828000	4.79140600
3.59283800	32.62428000	3.67748000
3.59783800	35.17258000	3.90636900
3.60283800	35.17258000	3.96740600
3.60783800	32.62428000	3.96740600
3.61283800	31.44932000	4.02844300
3.61783800	31.67821000	4.25733200
3.62283800	31.73925000	3.14340600
3.62783800	31.73925000	0.82399970
3.63283800	31.73925000	-0.35096280
3.63783800	31.73925000	-0.35096280
3.64283800	31.73925000	0.88503670
3.64783800	31.73925000	3.43333200
3.65283800	31.73925000	3.43333200
3.65783800	31.73925000	0.88503670
3.66283800	31.73925000	-0.28992580
3.66783800	31.73925000	-0.06103702
3.67283800	31.73925000	0.00000000
3.67783800	31.73925000	0.00000000
3.68283800	31.73925000	0.00000000
3.68783800	31.73925000	0.00000000
3.69283800	31.73925000	0.00000000
3.69783800	31.73925000	0.00000000
3.70283800	31.73925000	0.00000000
3.70783800	31.73925000	0.00000000
3.71283800	31.73925000	0.00000000
3.71783800	31.73925000	0.00000000
3.72283800	31.73925000	0.00000000
3.72783800	31.73925000	0.00000000
3.73283800	31.73925000	0.00000000
3.73783800	31.73925000	0.00000000
3.74283800	31.73925000	0.00000000
3.74783800	31.73925000	0.00000000
3.75283800	31.73925000	0.00000000
3.75783800	31.73925000	0.00000000
3.76283800	31.73925000	0.00000000
3.76783800	31.73925000	0.00000000
3.77283800	31.80028000	0.00000000
3.77783800	32.02917000	0.00000000
3.78283800	30.91525000	0.00000000
3.78783800	28.59584000	0.00000000
3.79283800	27.48192000	0.06103702
3.79783800	27.71080000	0.28992580
3.80283800	27.77184000	-0.82399970
3.80783800	27.77184000	-3.14340600
3.81283800	27.77184000	-4.25733200
3.81783800	27.77184000	-4.02844300
3.82283800	27.77184000	-3.96740600
3.82783800	27.77184000	-3.96740600
3.83283800	27.77184000	-3.96740600
3.83783800	27.77184000	-3.96740600
3.84283800	27.77184000	-3.96740600
3.84783800	27.77184000	-3.96740600
3.85283800	27.83288000	-3.96740600
3.85783800	28.06177000	-3.96740600
3.86283800	26.88680000	-3.96740600
3.86783800	24.33851000	-3.96740600
3.87283800	24.33851000	-3.96740600
3.87783800	26.88680000	-3.96740600
3.88283800	28.06177000	-3.96740600
3.88783800	27.83288000	-3.96740600
3.89283800	27.77184000	-3.96740600
3.89783800	27.77184000	-3.96740600
3.90283800	27.77184000	-3.90636900
3.90783800	27.77184000	-3.67748000
3.91283800	27.83288000	-4.79140600
3.91783800	28.06177000	-7.11081200
3.92283800	26.88680000	-8.22473800
3.92783800	24.33851000	-7.99584900
3.93283800	24.39955000	-7.93481200
3.93783800	27.17673000	-7.93481200
3.94283800	27.23777000	-7.93481200
3.94783800	24.68947000	-7.93481200
3.95283800	23.45347000	-7.93481200
3.95783800	23.45347000	-7.93481200
3.96283800	24.68947000	-7.93481200
3.96783800	27.23777000	-7.93481200
3.97283800	27.23777000	-7.93481200
3.97783800	24.68947000	-7.93481200
3.98283800	23.51451000	-7.93481200
3.98783800	23.74340000	-7.93481200
3.99283800	23.80444000	-7.93481200
3.99783800	23.80444000	-7.93481200
4.00283800	23.80444000	-7.93481200
4.00783800	23.80444000	-7.93481200
4.01283800	23.80444000	-7.93481200
4.01783800	23.80444000	-7.93481200
4.02283800	23.80444000	-7.93481200
4.02783800	23.80444000	-7.93481200
4.03283800	23.80444000	-7.93481200
4.03783800	23.80444000	-7.93481200
4.04283800	23.80444000	-7.93481200
4.04783800	23.80444000	-7.93481200
4.05283800	23.80444000	-7.93481200
4.05783800	23.80444000	-7.93481200
4.06283800	23.80444000	-7.93481200
4.06783800	23.80444000	-7.93481200
4.07283800	23.80444000	-7.93481200
4.07783800	23.80444000	-7.93481200
4.08283800	23.80444000	-7.93481200
4.08783800	23.80444000	-7.93481200
4.09283800	23.80444000	-7.93481200
4.09783800	23.80444000	-7.93481200
4.10283800	23.80444000	-7.93481200
4.10783800	23.80444000	-7.93481200
4.11283800	23.80444000	-7.93481200
4.11783800	23.80444000	-7.93481200
4.12283800	23.80444000	-7.93481200
4.12783800	23.80444000	-7.93481200
4.13283800	23.86547000	-7.93481200
4.13783800	24.09436000	-7.93481200
4.14283800	22.91940000	-7.93481200
4.14783800	20.37111000	-7.93481200
4.15283800	20.43214000	-7.93481200
4.15783800	23.20932000	-7.93481200
4.16283800	23.20932000	-7.93481200
4.16783800	20.43214000	-7.93481200
4.17283800	20.43214000	-7.93481200
4.17783800	23.20932000	-7.93481200
4.18283800	23.27036000	-7.93481200
4.18783800	20.72207000	-7.93481200
4.19283800	19.54710000	-7.87377500
4.19783800	19.77599000	-7.64488600
4.20283800	19.83703000	-8.75881200
4.20783800	19.83703000	-11.07822000
4.21283800	19.83703000	-12.25318000
4.21783800	19.83703000	-12.25318000
4.22283800	19.83703000	-11.01718000
4.22783800	19.83703000	-8.46888600
4.23283800	19.83703000	-8.46888600
4.23783800	19.83703000	-11.01718000
4.24283800	19.83703000	-12.19214000
4.24783800	19.83703000	-11.96325000
4.25283800	19.83703000	-11.96325000
4.25783800	19.83703000	-12.19214000
4.26283800	19.83703000	-11.01718000
4.26783800	19.83703000	-8.46888600
4.27283800	19.83703000	-8.46888600
4.27783800	19.83703000	-11.01718000
4.28283800	19.83703000	-12.25318000
4.28783800	19.83703000	-12.25318000
4.29283800	19.83703000	-11.01718000
4.29783800	19.83703000	-8.46888600
4.30283800	19.83703000	-8.52992300
4.30783800	19.83703000	-11.30711000
4.31283800	19.83703000	-11.36814000
4.31783800	19.83703000	-8.81984900
4.32283800	19.83703000	-7.64488600
4.32783800	19.83703000	-7.87377500
4.33283800	19.83703000	-7.87377500
4.33783800	19.83703000	-7.64488600
4.34283800	19.83703000	-8.75881200
4.34783800	19.83703000	-11.07822000
4.35283800	19.83703000	-12.25318000
4.35783800	19.83703000	-12.25318000
4.36283800	19.89807000	-11.01718000
4.36783800	20.12696000	-8.46888600
4.37283800	19.01303000	-8.52992300
4.37783800	16.69362000	-11.30711000
4.38283800	15.57970000	-11.30711000
4.38783800	15.80859000	-8.52992300
4.39283800	15.86962000	-8.46888600
4.39783800	15.86962000	-11.01718000
4.40283800	15.86962000	-12.25318000
4.40783800	15.86962000	-12.25318000
4.41283800	15.86962000	-11.01718000
4.41783800	15.86962000	-8.46888600
4.42283800	15.86962000	-8.52992300
4.42783800	15.86962000	-11.30711000
4.43283800	15.86962000	-11.30711000
4.43783800	15.86962000	-8.52992300
4.44283800	15.86962000	-8.46888600
4.44783800	15.86962000	-11.01718000
4.45283800	15.86962000	-12.19214000
4.45783800	15.86962000	-11.96325000
4.46283800	15.86962000	-11.90222000
4.46783800	15.86962000	-11.90222000
4.47283800	15.86962000	-11.90222000
4.47783800	15.86962000	-11.90222000
4.48283800	15.86962000	-11.90222000
4.48783800	15.86962000	-11.90222000
4.49283800	15.86962000	-11.90222000
4.49783800	15.86962000	-11.90222000
4.50283800	15.86962000	-11.90222000
4.50783800	15.86962000	-11.90222000
4.51283800	15.86962000	-11.90222000
4.51783800	15.86962000	-11.90222000
4.52283800	15.86962000	-11.90222000
4.52783800	15.86962000	-11.90222000
4.53283800	15.86962000	-11.90222000
4.53783800	15.86962000	-11.90222000
4.54283800	15.86962000	-11.90222000
4.54783800	15.86962000	-11.90222000
4.55283800	15.86962000	-11.90222000
4.55783800	15.86962000	-11.90222000
4.56283800	15.86962000	-11.90222000
4.56783800	15.86962000	-11.90222000
4.57283800	15.86962000	-11.90222000
4.57783800	15.86962000	-11.90222000
4.58283800	15.86962000	-11.90222000
4.58783800	15.86962000	-11.90222000
4.59283800	15.86962000	-11.90222000
4.59783800	15.86962000	-11.90222000
4.60283800	15.86962000	-11.90222000
4.60783800	15.86962000	-11.90222000
4.61283800	15.86962000	-11.90222000
4.61783800	15.86962000	-11.90222000
4.62283800	15.86962000	-11.90222000
4.62783800	15.86962000	-11.90222000
4.63283800	15.86962000	-11.90222000
4.63783800	15.86962000	-11.90222000
4.64283800	15.86962000	-11.90222000
4.64783800	15.86962000	-11.90222000
4.65283800	15.93066000	-11.90222000
4.65783800	16.15955000	-11.90222000
4.66283800	15.04562000	-11.90222000
4.66783800	12.72622000	-11.90222000
4.67283800	11.61229000	-11.90222000
4.67783800	11.84118000	-11.90222000
4.68283800	11.90222000	-11.90222000
4.68783800	11.90222000	-11.90222000
4.69283800	11.90222000	-11.90222000
4.69783800	11.90222000	-11.90222000
4.70283800	11.90222000	-11.90222000
4.70783800	11.90222000	-11.90222000
4.71283800	11.90222000	-11.90222000
4.71783800	11.90222000	-11.90222000
4.72283800	11.90222000	-11.90222000
4.72783800	11.90222000	-11.90222000
4.73283800	11.84118000	-11.90222000
4.73783800	11.61229000	-11.90222000
4.74283800	12.78725000	-11.90222000
4.74783800	15.33555000	-11.90222000
4.75283800	15.33555000	-11.90222000
4.75783800	12.78725000	-11.90222000
4.76283800	11.61229000	-11.90222000
4.76783800	11.84118000	-11.90222000
4.77283800	11.90222000	-11.90222000
4.77783800	11.90222000	-11.90222000
4.78283800	11.90222000	-11.90222000
4.78783800	11.90222000	-11.90222000
4.79283800	11.90222000	-11.90222000
4.79783800	11.90222000	-11.90222000
4.80283800	11.90222000	-11.90222000
4.80783800	11.90222000	-11.90222000
4.81283800	11.90222000	-11.90222000
4.81783800	11.90222000	-11.90222000
4.82283800	11.90222000	-11.90222000
4.82783800	11.90222000	-11.90222000
4.83283800	11.90222000	-11.90222000
4.83783800	11.90222000	-11.90222000
4.84283800	11.90222000	-11.90222000
4.84783800	11.90222000	-11.90222000
4.85283800	11.96325000	-11.90222000
4.85783800	12.19214000	-11.90222000
4.86283800	11.01718000	-11.84118000
4.86783800	8.46888600	-11.61229000
4.87283800	8.52992300	-12.78725000
4.87783800	11.30711000	-15.33555000
4.88283800	11.36814000	-15.27451000
4.88783800	8.81984900	-12.49733000
4.89283800	7.64488600	-12.49733000
4.89783800	7.87377500	-15.27451000
4.90283800	7.87377500	-15.33555000
4.90783800	7.64488600	-12.78725000
4.91283800	8.81984900	-11.61229000
4.91783800	11.36814000	-11.84118000
4.92283800	11.36814000	-11.90222000
4.92783800	8.81984900	-11.90222000
4.93283800	7.64488600	-11.90222000
4.93783800	7.87377500	-11.90222000
4.94283800	7.87377500	-11.90222000
4.94783800	7.64488600	-11.90222000
4.95283800	8.81984900	-11.90222000
4.95783800	11.36814000	-11.90222000
4.96283800	11.36814000	-11.90222000
4.96783800	8.81984900	-11.90222000
4.97283800	7.64488600	-11.90222000
4.97783800	7.87377500	-11.90222000
4.98283800	7.93481200	-11.90222000
4.98783800	7.93481200	-11.90222000
4.99283800	7.93481200	-11.90222000
4.99783800	7.93481200	-11.90222000
5.00283800	7.93481200	-11.90222000
5.00783800	7.93481200	-11.90222000
5.01283800	7.93481200	-11.90222000
5.01783800	7.93481200	-11.90222000
5.02283800	7.93481200	-11.90222000
5.02783800	7.93481200	-11.90222000
5.03283800	7.93481200	-11.90222000
5.03783800	7.93481200	-11.90222000
5.04283800	7.93481200	-11.90222000
5.04783800	7.93481200	-11.90222000
5.05283800	7.93481200	-11.84118000
5.05783800	7.93481200	-11.61229000
5.06283800	7.93481200	-12.78725000
5.06783800	7.93481200	-15.33555000
5.07283800	7.93481200	-15.27451000
5.07783800	7.93481200	-12.49733000
5.08283800	7.93481200	-12.43629000
5.08783800	7.93481200	-14.98459000
5.09283800	7.93481200	-16.15955000
5.09783800	7.93481200	-15.93066000
5.10283800	7.93481200	-15.86962000
5.10783800	7.93481200	-15.86962000
5.11283800	7.93481200	-15.86962000
5.11783800	7.93481200	-15.86962000
5.12283800	7.93481200	-15.93066000
5.12783800	7.93481200	-16.15955000
5.13283800	7.93481200	-15.04562000
5.13783800	7.93481200	-12.72622000
5.14283800	7.93481200	-11.61229000
5.14783800	7.93481200	-11.84118000
5.15283800	7.99584900	-11.90222000
5.15783800	8.22473800	-11.90222000
5.16283800	7.04977500	-11.90222000
5.16783800	4.50148000	-11.90222000
5.17283800	4.56251700	-11.90222000
5.17783800	7.33970100	-11.90222000
5.18283800	7.40073800	-11.90222000
5.18783800	4.85244300	-11.90222000
5.19283800	3.61644300	-11.90222000
5.19783800	3.61644300	-11.90222000
5.20283800	4.79140600	-11.90222000
5.20783800	7.11081200	-11.90222000
5.21283800	8.22473800	-11.90222000
5.21783800	7.99584900	-11.90222000
5.22283799	7.93481200	-11.90222000
5.22783799	7.93481200	-11.90222000
5.23283799	7.99584900	-11.90222000
5.23783799	8.22473800	-11.90222000
5.24283799	7.11081200	-11.90222000
5.24783799	4.79140600	-11.90222000
5.25283799	3.67748000	-11.90222000
5.25783799	3.90636900	-11.90222000
5.26283799	3.96740600	-11.90222000
5.26783799	3.96740600	-11.90222000
5.27283799	3.96740600	-11.84118000
5.27783799	3.96740600	-11.61229000
5.28283799	3.96740600	-12.72622000
5.28783799	3.96740600	-15.04562000
5.29283799	3.96740600	-16.15955000
5.29783799	3.96740600	-15.93066000
5.30283799	3.96740600	-15.93066000
5.30783799	3.96740600	-16.15955000
5.31283799	3.96740600	-15.04562000
5.31783799	3.96740600	-12.72622000
5.32283799	3.96740600	-11.61229000
5.32783799	3.96740600	-11.84118000
5.33283799	3.96740600	-11.84118000
5.33783799	3.96740600	-11.61229000
5.34283799	3.96740600	-12.72622000
5.34783799	3.96740600	-15.04562000
5.35283799	3.96740600	-16.22059000
5.35783799	3.96740600	-16.22059000
5.36283799	3.96740600	-15.04562000
5.36783799	3.96740600	-12.72622000
5.37283799	3.96740600	-11.61229000
5.37783799	3.96740600	-11.84118000
5.38283799	3.96740600	-11.90222000
5.38783799	3.96740600	-11.90222000
5.39283799	3.96740600	-11.84118000
5.39783799	3.96740600	-11.61229000
5.40283799	3.96740600	-12.78725000
5.40783799	3.96740600	-15.33555000
5.41283799	3.96740600	-15.33555000
5.41783799	3.96740600	-12.78725000
5.42283799	3.96740600	-11.55125000
5.42783799	3.96740600	-11.55125000
5.43283799	3.96740600	-12.78725000
5.43783799	3.96740600	-15.33555000
5.44283799	3.96740600	-15.27451000
5.44783799	3.96740600	-12.49733000
5.45283799	3.96740600	-12.49733000
5.45783799	3.96740600	-15.27451000
5.46283799	3.96740600	-15.33555000
5.46783799	3.96740600	-12.78725000
5.47283799	3.96740600	-11.61229000
5.47783799	3.96740600	-11.84118000
5.48283799	3.96740600	-11.90222000
5.48783799	3.96740600	-11.90222000
5.49283799	3.96740600	-11.90222000
5.49783799	3.96740600	-11.90222000
5.50283799	3.96740600	-11.90222000
5.50783799	3.96740600	-11.90222000
5.51283799	3.96740600	-11.90222000
5.51783799	3.96740600	-11.90222000
5.52283799	3.96740600	-11.90222000
5.52783799	3.96740600	-11.90222000
5.53283799	3.96740600	-11.84118000
5.53783799	3.96740600	-11.61229000
5.54283799	4.02844300	-12.72622000
5.54783799	4.25733200	-15.04562000
5.55283799	3.08236900	-16.15955000
5.55783799	0.53407390	-15.93066000
5.56283799	0.53407390	-15.93066000
5.56783799	3.08236900	-16.15955000
5.57283799	4.25733200	-14.98459000
5.57783799	4.02844300	-12.43629000
5.58283799	3.96740600	-12.49733000
5.58783799	3.96740600	-15.27451000
5.59283799	4.02844300	-15.33555000
5.59783799	4.25733200	-12.78725000
5.60283799	3.14340600	-11.55125000
5.60783799	0.82399970	-11.55125000
5.61283799	-0.35096280	-12.72622000
5.61783799	-0.35096280	-15.04562000
5.62283799	0.82399970	-16.15955000
5.62783799	3.14340600	-15.93066000
5.63283799	4.31836900	-15.86962000
5.63783799	4.31836900	-15.86962000
5.64283799	3.14340600	-15.86962000
5.64783799	0.82399970	-15.86962000
5.65283799	-0.28992580	-15.86962000
5.65783799	-0.06103702	-15.86962000
5.66283799	0.00000000	-15.86962000
5.66783799	0.00000000	-15.86962000
5.67283799	0.00000000	-15.86962000
5.67783799	0.00000000	-15.86962000
5.68283799	0.00000000	-15.86962000
5.68783799	0.00000000	-15.86962000
5.69283799	0.00000000	-15.86962000
5.69783799	0.00000000	-15.86962000
5.70283799	0.00000000	-15.86962000
5.70783799	0.00000000	-15.86962000
5.71283799	0.00000000	-15.86962000
5.71783799	0.00000000	-15.86962000
5.72283799	0.00000000	-15.86962000
5.72783799	0.00000000	-15.86962000
5.73283799	0.00000000	-15.86962000
5.73783799	0.00000000	-15.86962000
5.74283799	0.00000000	-15.86962000
5.74783799	0.00000000	-15.86962000
5.75283799	0.00000000	-15.86962000
5.75783799	0.00000000	-15.86962000
5.76283799	0.00000000	-15.86962000
5.76783799	0.00000000	-15.86962000
5.77283799	0.00000000	-15.86962000
5.77783799	0.00000000	-15.86962000
5.78283799	0.00000000	-15.86962000
5.78783799	0.00000000	-15.86962000
5.79283799	0.00000000	-15.86962000
5.79783799	0.00000000	-15.86962000
5.80283799	0.00000000	-15.86962000
5.80783799	0.00000000	-15.86962000
5.81283799	0.00000000	-15.86962000
5.81783799	0.00000000	-15.86962000
5.82283799	0.00000000	-15.86962000
5.82783799	0.00000000	-15.86962000
5.83283799	0.00000000	-15.86962000
5.83783799	0.00000000	-15.86962000
5.84283799	0.00000000	-15.86962000
5.84783799	0.00000000	-15.86962000
5.85283799	0.00000000	-15.86962000
5.85783799	0.00000000	-15.86962000
5.86283799	0.00000000	-15.86962000
5.86783799	0.00000000	-15.86962000
5.87283799	0.00000000	-15.86962000
5.87783799	0.00000000	-15.86962000
5.88283799	0.00000000	-15.86962000
5.88783799	0.00000000	-15.86962000
5.89283799	0.00000000	-15.86962000
5.89783799	0.00000000	-15.86962000
5.90283799	0.00000000	-15.86962000
5.90783799	0.00000000	-15.86962000
5.91283799	0.00000000	-15.93066000
5.91783799	0.00000000	-16.15955000
5.92283799	0.00000000	-14.98459000
5.92783799	0.00000000	-12.43629000
5.93283799	0.00000000	-12.43629000
5.93783799	0.00000000	-14.98459000
5.94283799	0.00000000	-16.15955000
5.94783799	0.00000000	-15.93066000
5.95283799	0.00000000	-15.86962000
5.95783799	0.00000000	-15.86962000
5.96283799	0.00000000	-15.86962000
5.96783799	0.00000000	-15.86962000
5.97283799	0.00000000	-15.86962000
5.97783799	0.00000000	-15.86962000
5.98283799	0.00000000	-15.86962000
5.98783799	0.00000000	-15.86962000
5.99283799	0.00000000	-15.86962000
5.99783799	0.00000000	-15.86962000
6.00283799	0.00000000	-15.86962000
6.00783799	0.00000000	-15.86962000
6.01283799	0.00000000	-15.86962000
6.01783799	0.00000000	-15.86962000
6.02283799	0.00000000	-15.93066000
6.02783799	0.00000000	-16.15955000
6.03283799	0.00000000	-15.04562000
6.03783799	0.00000000	-12.72622000
6.04283799	0.00000000	-11.55125000
6.04783799	0.00000000	-11.55125000
6.05283799	0.00000000	-12.72622000
6.05783799	0.00000000	-15.04562000
6.06283799	0.00000000	-16.15955000
6.06783799	0.00000000	-15.93066000
6.07283799	0.00000000	-15.86962000
6.07783799	0.00000000	-15.86962000
6.08283799	0.00000000	-15.86962000
6.08783799	0.00000000	-15.86962000
6.09283799	0.00000000	-15.86962000
6.09783799	0.00000000	-15.86962000
6.10283799	0.06103702	-15.86962000
6.10783799	0.28992580	-15.86962000
6.11283799	-0.88503670	-15.86962000
6.11783799	-3.43333200	-15.86962000
6.12283799	-3.43333200	-15.86962000
6.12783799	-0.88503670	-15.86962000
6.13283799	0.28992580	-15.86962000
6.13783799	0.06103702	-15.86962000
6.14283799	0.06103702	-15.86962000
6.14783799	0.28992580	-15.86962000
6.15283799	-0.88503670	-15.86962000
6.15783799	-3.43333200	-15.86962000
6.16283799	-3.37229500	-15.86962000
6.16783799	-0.59511090	-15.86962000
6.17283799	-0.59511090	-15.86962000
6.17783799	-3.37229500	-15.86962000
6.18283799	-3.43333200	-15.86962000
6.18783799	-0.88503670	-15.86962000
6.19283799	0.35096280	-15.86962000
6.19783799	0.35096280	-15.86962000
6.20283799	-0.82399970	-15.86962000
6.20783799	-3.14340600	-15.86962000
6.21283799	-4.25733200	-15.86962000
6.21783799	-4.02844300	-15.86962000
6.22283799	-3.96740600	-15.80859000
6.22783799	-3.96740600	-15.57970000
6.23283799	-3.96740600	-16.69362000
6.23783799	-3.96740600	-19.01303000
6.24283799	-3.96740600	-20.18799000
6.24783799	-3.96740600	-20.18799000
6.25283799	-3.96740600	-18.95199000
6.25783799	-3.96740600	-16.40370000
6.26283799	-4.02844300	-16.46474000
6.26783799	-4.25733200	-19.24192000
6.27283799	-3.08236900	-19.30296000
6.27783799	-0.53407390	-16.75466000
6.28283799	-0.53407390	-15.57970000
6.28783799	-3.08236900	-15.80859000
6.29283799	-4.25733200	-15.86962000
6.29783799	-4.02844300	-15.86962000
6.30283799	-3.96740600	-15.86962000
6.30783799	-3.96740600	-15.86962000
6.31283799	-3.96740600	-15.86962000
6.31783799	-3.96740600	-15.86962000
6.32283799	-3.96740600	-15.86962000
6.32783799	-3.96740600	-15.86962000
6.33283799	-3.96740600	-15.86962000
6.33783799	-3.96740600	-15.86962000
6.34283799	-3.96740600	-15.86962000
6.34783799	-3.96740600	-15.86962000
6.35283799	-3.96740600	-15.86962000
6.35783799	-3.96740600	-15.86962000
6.36283799	-3.96740600	-15.86962000
6.36783799	-3.96740600	-15.86962000
6.37283799	-3.96740600	-15.86962000
6.37783799	-3.96740600	-15.86962000
6.38283799	-3.96740600	-15.86962000
6.38783799	-3.96740600	-15.86962000
6.39283799	-3.96740600	-15.86962000
6.39783799	-3.96740600	-15.86962000
6.40283799	-3.96740600	-15.86962000
6.40783799	-3.96740600	-15.86962000
6.41283799	-3.96740600	-15.86962000
6.41783799	-3.96740600	-15.86962000
6.42283799	-3.96740600	-15.86962000
6.42783799	-3.96740600	-15.86962000
6.43283799	-3.96740600	-15.86962000
6.43783799	-3.96740600	-15.86962000
6.44283799	-3.96740600	-15.86962000
6.44783799	-3.96740600	-15.86962000
6.45283799	-3.96740600	-15.86962000
6.45783799	-3.96740600	-15.86962000
6.46283799	-3.96740600	-15.80859000
6.46783799	-3.96740600	-15.57970000
6.47283799	-3.96740600	-16.69362000
6.47783799	-3.96740600	-19.01303000
6.48283799	-3.96740600	-20.12696000
6.48783799	-3.96740600	-19.89807000
6.49283799	-3.96740600	-19.89807000
6.49783799	-3.96740600	-20.12696000
6.50283799	-3.96740600	-18.95199000
6.50783799	-3.96740600	-16.40370000
6.51283799	-3.96740600	-16.40370000
6.51783799	-3.96740600	-18.95199000
6.52283799	-3.96740600	-20.12696000
6.52783799	-3.96740600	-19.89807000
6.53283799	-3.96740600	-19.89807000
6.53783799	-3.96740600	-20.12696000
6.54283799	-3.96740600	-19.01303000
6.54783799	-3.96740600	-16.69362000
6.55283799	-3.96740600	-15.51866000
6.55783799	-3.96740600	-15.51866000
6.56283799	-3.96740600	-16.75466000
6.56783799	-3.96740600	-19.30296000
6.57283799	-3.96740600	-19.30296000
6.57783799	-3.96740600	-16.75466000
6.58283799	-3.96740600	-15.57970000
6.58783799	-3.96740600	-15.80859000
6.59283799	-3.96740600	-15.80859000
6.59783799	-3.96740600	-15.57970000
6.60283799	-3.96740600	-16.69362000
6.60783799	-3.96740600	-19.01303000
6.61283799	-3.96740600	-20.18799000
6.61783799	-3.96740600	-20.18799000
6.62283799	-3.96740600	-18.95199000
6.62783799	-3.96740600	-16.40370000
6.63283799	-3.96740600	-16.40370000
6.63783799	-3.96740600	-18.95199000
6.64283799	-3.96740600	-20.18799000
6.64783799	-3.96740600	-20.18799000
6.65283799	-3.96740600	-19.01303000
6.65783799	-3.96740600	-16.69362000
6.66283799	-3.96740600	-15.57970000
6.66783799	-3.96740600	-15.80859000
6.67283799	-3.96740600	-15.86962000
6.67783799	-3.96740600	-15.86962000
6.68283799	-3.96740600	-15.80859000
6.68783799	-3.96740600	-15.57970000
6.69283799	-3.96740600	-16.75466000
6.69783799	-3.96740600	-19.30296000
6.70283799	-3.90636900	-19.24192000
6.70783799	-3.67748000	-16.46474000
6.71283799	-4.85244300	-16.40370000
6.71783799	-7.40073800	-18.95199000
6.72283799	-7.33970100	-20.12696000
6.72783799	-4.56251700	-19.89807000
6.73283799	-4.56251700	-19.83703000
6.73783799	-7.33970100	-19.83703000
6.74283799	-7.40073800	-19.83703000
6.74783799	-4.85244300	-19.83703000
6.75283799	-3.67748000	-19.83703000
6.75783799	-3.90636900	-19.83703000
6.76283799	-3.90636900	-19.83703000
6.76783799	-3.67748000	-19.83703000
6.77283799	-4.79140600	-19.83703000
6.77783799	-7.11081200	-19.83703000
6.78283799	-8.22473800	-19.83703000
6.78783799	-7.99584900	-19.83703000
6.79283799	-7.93481200	-19.83703000
6.79783799	-7.93481200	-19.83703000
6.80283799	-7.93481200	-19.89807000
6.80783799	-7.93481200	-20.12696000
6.81283799	-7.93481200	-19.01303000
6.81783799	-7.93481200	-16.69362000
6.82283799	-7.93481200	-15.57970000
6.82783799	-7.93481200	-15.80859000
6.83283799	-7.93481200	-15.86962000
6.83783799	-7.93481200	-15.86962000
6.84283799	-7.93481200	-15.86962000
6.84783799	-7.93481200	-15.86962000
6.85283799	-7.93481200	-15.86962000
6.85783799	-7.93481200	-15.86962000
6.86283799	-7.99584900	-15.86962000
6.86783798	-8.22473800	-15.86962000
6.87283798	-7.04977500	-15.80859000
6.87783798	-4.50148000	-15.57970000
6.88283798	-4.50148000	-16.69362000
6.88783798	-7.04977500	-19.01303000
6.89283798	-8.22473800	-20.12696000
6.89783798	-7.99584900	-19.89807000
6.90283798	-7.93481200	-19.83703000
6.90783798	-7.93481200	-19.83703000
6.91283798	-7.93481200	-19.83703000
6.91783798	-7.93481200	-19.83703000
6.92283798	-7.93481200	-19.83703000
6.92783798	-7.93481200	-19.83703000
6.93283798	-7.93481200	-19.83703000
6.93783798	-7.93481200	-19.83703000
6.94283798	-7.93481200	-19.89807000
6.94783798	-7.93481200	-20.12696000
6.95283798	-7.93481200	-19.01303000
6.95783798	-7.93481200	-16.69362000
6.96283798	-7.93481200	-15.57970000
6.96783798	-7.93481200	-15.80859000
6.97283798	-7.93481200	-15.86962000
6.97783798	-7.93481200	-15.86962000
6.98283798	-7.93481200	-15.86962000
6.98783798	-7.93481200	-15.86962000
6.99283798	-7.93481200	-15.86962000
6.99783798	-7.93481200	-15.86962000
7.00283798	-7.93481200	-15.80859000
7.00783798	-7.93481200	-15.57970000
7.01283798	-7.93481200	-16.69362000
7.01783798	-7.93481200	-19.01303000
7.02283798	-7.93481200	-20.12696000
7.02783798	-7.93481200	-19.89807000
7.03283798	-7.93481200	-19.83703000
7.03783798	-7.93481200	-19.83703000
7.04283798	-7.93481200	-19.83703000
7.04783798	-7.93481200	-19.83703000
7.05283798	-7.93481200	-19.89807000
7.05783798	-7.93481200	-20.12696000
7.06283798	-7.93481200	-18.95199000
7.06783798	-7.93481200	-16.40370000
7.07283798	-7.93481200	-16.46474000
7.07783798	-7.93481200	-19.24192000
7.08283798	-7.93481200	-19.30296000
7.08783798	-7.93481200	-16.75466000
7.09283798	-7.93481200	-15.57970000
7.09783798	-7.93481200	-15.80859000
7.10283798	-7.93481200	-15.86962000
7.10783798	-7.93481200	-15.86962000
7.11283798	-7.93481200	-15.80859000
7.11783798	-7.93481200	-15.57970000
7.12283798	-7.93481200	-16.69362000
7.12783798	-7.93481200	-19.01303000
7.13283798	-7.93481200	-20.12696000
7.13783798	-7.93481200	-19.89807000
7.14283798	-7.93481200	-19.83703000
7.14783798	-7.93481200	-19.83703000
7.15283798	-7.93481200	-19.89807000
7.15783798	-7.93481200	-20.12696000
7.16283798	-7.93481200	-18.95199000
7.16783798	-7.93481200	-16.40370000
7.17283798	-7.93481200	-16.40370000
7.17783798	-7.93481200	-18.95199000
7.18283798	-7.93481200	-20.18799000
7.18783798	-7.93481200	-20.18799000
7.19283798	-7.93481200	-19.01303000
7.19783798	-7.93481200	-16.69362000
7.20283798	-7.93481200	-15.57970000
7.20783798	-7.93481200	-15.80859000
7.21283798	-7.93481200	-15.86962000
7.21783798	-7.93481200	-15.86962000
7.22283798	-7.93481200	-15.86962000
7.22783798	-7.93481200	-15.86962000
7.23283798	-7.93481200	-15.80859000
7.23783798	-7.93481200	-15.57970000
7.24283798	-7.93481200	-16.69362000
7.24783798	-7.93481200	-19.01303000
7.25283798	-7.93481200	-20.12696000
7.25783798	-7.93481200	-19.89807000
7.26283798	-7.93481200	-19.89807000
7.26783798	-7.93481200	-20.12696000
7.27283798	-7.93481200	-18.95199000
7.27783798	-7.93481200	-16.40370000
7.28283798	-7.93481200	-16.40370000
7.28783798	-7.93481200	-18.95199000
7.29283798	-7.93481200	-20.12696000
7.29783798	-7.93481200	-19.89807000
7.30283798	-7.93481200	-19.83703000
7.30783798	-7.93481200	-19.83703000
7.31283798	-7.93481200	-19.83703000
7.31783798	-7.93481200	-19.83703000
7.32283798	-7.93481200	-19.83703000
7.32783798	-7.93481200	-19.83703000
7.33283798	-7.93481200	-19.83703000
7.33783798	-7.93481200	-19.83703000
7.34283798	-7.93481200	-19.83703000
7.34783798	-7.93481200	-19.83703000
7.35283798	-7.93481200	-19.83703000
7.35783798	-7.93481200	-19.83703000
7.36283798	-7.93481200	-19.83703000
7.36783798	-7.93481200	-19.83703000
7.37283798	-7.93481200	-19.89807000
7.37783798	-7.93481200	-20.12696000
7.38283798	-7.93481200	-19.01303000
7.38783798	-7.93481200	-16.69362000
7.39283798	-7.93481200	-15.57970000
7.39783798	-7.93481200	-15.80859000
7.40283798	-7.93481200	-15.80859000
7.40783798	-7.93481200	-15.57970000
7.41283798	-7.93481200	-16.75466000
7.41783798	-7.93481200	-19.30296000
7.42283798	-7.93481200	-19.30296000
7.42783798	-7.93481200	-16.75466000
7.43283798	-7.93481200	-15.57970000
7.43783798	-7.93481200	-15.80859000
7.44283798	-7.93481200	-15.86962000
7.44783798	-7.93481200	-15.86962000
7.45283798	-7.93481200	-15.86962000
7.45783798	-7.93481200	-15.86962000
7.46283798	-7.93481200	-15.80859000
7.46783798	-7.93481200	-15.57970000
7.47283798	-7.93481200	-16.75466000
7.47783798	-7.93481200	-19.30296000
7.48283798	-7.93481200	-19.30296000
7.48783798	-7.93481200	-16.75466000
7.49283798	-7.93481200	-15.57970000
7.49783798	-7.93481200	-15.80859000
7.50283798	-7.93481200	-15.80859000
7.50783798	-7.93481200	-15.57970000
7.51283798	-7.93481200	-16.69362000
7.51783798	-7.93481200	-19.01303000
7.52283798	-7.93481200	-20.18799000
7.52783798	-7.93481200	-20.18799000
7.53283798	-7.93481200	-18.95199000
7.53783798	-7.93481200	-16.40370000
7.54283798	-7.93481200	-16.40370000
7.54783798	-7.93481200	-18.95199000
7.55283798	-7.93481200	-20.12696000
7.55783798	-7.93481200	-19.89807000
7.56283798	-7.93481200	-19.83703000
7.56783798	-7.93481200	-19.83703000
7.57283798	-7.93481200	-19.83703000
7.57783798	-7.93481200	-19.83703000
7.58283798	-7.93481200	-19.83703000
7.58783798	-7.93481200	-19.83703000
7.59283798	-7.87377500	-19.83703000
7.59783798	-7.64488600	-19.83703000
7.60283798	-8.81984900	-19.83703000
7.60783798	-11.36814000	-19.83703000
7.61283798	-11.36814000	-19.83703000
7.61783798	-8.81984900	-19.83703000
7.62283798	-7.64488600	-19.83703000
7.62783798	-7.87377500	-19.83703000
7.63283798	-7.93481200	-19.83703000
7.63783798	-7.93481200	-19.83703000
7.64283798	-7.93481200	-19.83703000
7.64783798	-7.93481200	-19.83703000
7.65283798	-7.87377500	-19.83703000
7.65783798	-7.64488600	-19.83703000
7.66283798	-8.81984900	-19.83703000
7.66783798	-11.36814000	-19.83703000
7.67283798	-11.36814000	-19.83703000
7.67783798	-8.81984900	-19.83703000
7.68283798	-7.64488600	-19.83703000
7.68783798	-7.87377500	-19.83703000
7.69283798	-7.93481200	-19.83703000
7.69783798	-7.93481200	-19.83703000
7.70283798	-7.93481200	-19.83703000
7.70783798	-7.93481200	-19.83703000
7.71283798	-7.93481200	-19.83703000
7.71783798	-7.93481200	-19.83703000
7.72283798	-7.93481200	-19.83703000
7.72783798	-7.93481200	-19.83703000
7.73283798	-7.93481200	-19.83703000
7.73783798	-7.93481200	-19.83703000
7.74283798	-7.93481200	-19.83703000
7.74783798	-7.93481200	-19.83703000
7.75283798	-7.93481200	-19.83703000
7.75783798	-7.93481200	-19.83703000
7.76283798	-7.93481200	-19.83703000
7.76783798	-7.93481200	-19.83703000
7.77283798	-7.93481200	-19.83703000
7.77783798	-7.93481200	-19.83703000
7.78283798	-7.93481200	-19.83703000
7.78783798	-7.93481200	-19.83703000
7.79283798	-7.93481200	-19.89807000
7.79783798	-7.93481200	-20.12696000
7.80283798	-7.93481200	-18.95199000
7.80783798	-7.93481200	-16.40370000
7.81283798	-7.93481200	-16.40370000
7.81783798	-7.93481200	-18.95199000
7.82283798	-7.93481200	-20.18799000
7.82783798	-7.93481200	-20.18799000
7.83283798	-7.93481200	-19.01303000
7.83783798	-7.93481200	-16.69362000
7.84283798	-7.93481200	-15.51866000
7.84783798	-7.93481200	-15.51866000
7.85283798	-7.93481200	-16.69362000
7.85783798	-7.93481200	-19.01303000
7.86283798	-7.87377500	-20.12696000
7.86783798	-7.64488600	-19.89807000
7.87283798	-8.81984900	-19.83703000
7.87783798	-11.36814000	-19.83703000
7.88283798	-11.36814000	-19.83703000
7.88783798	-8.81984900	-19.83703000
7.89283798	-7.64488600	-19.83703000
7.89783798	-7.87377500	-19.83703000
7.90283798	-7.87377500	-19.83703000
7.90783798	-7.64488600	-19.83703000
7.91283798	-8.81984900	-19.83703000
7.91783798	-11.36814000	-19.83703000
7.92283798	-11.30711000	-19.83703000
7.92783798	-8.52992300	-19.83703000
7.93283798	-8.52992300	-19.83703000
7.93783798	-11.30711000	-19.83703000
7.94283798	-11.36814000	-19.83703000
7.94783798	-8.81984900	-19.83703000
7.95283798	-7.64488600	-19.83703000
7.95783798	-7.87377500	-19.83703000
7.96283798	-7.87377500	-19.83703000
7.96783798	-7.64488600	-19.83703000
7.97283798	-8.75881200	-19.83703000
7.97783798	-11.07822000	-19.83703000
7.98283798	-12.19214000	-19.83703000
7.98783798	-11.96325000	-19.83703000
7.99283798	-11.90222000	-19.83703000
7.99783798	-11.90222000	-19.83703000
8.00283798	-11.96325000	-19.89807000
8.00783798	-12.19214000	-20.12696000
8.01283798	-11.01718000	-18.95199000
8.01783798	-8.46888600	-16.40370000
8.02283798	-8.46888600	-16.40370000
8.02783798	-11.01718000	-18.95199000
8.03283798	-12.19214000	-20.18799000
8.03783798	-11.96325000	-20.18799000
8.04283798	-11.90222000	-18.95199000
8.04783798	-11.90222000	-16.40370000
8.05283798	-11.96325000	-16.46474000
8.05783798	-12.19214000	-19.24192000
8.06283798	-11.01718000	-19.24192000
8.06783798	-8.46888600	-16.46474000
8.07283798	-8.46888600	-16.40370000
8.07783798	-11.01718000	-18.95199000
8.08283798	-12.25318000	-20.12696000
8.08783798	-12.25318000	-19.89807000
8.09283798	-11.01718000	-19.83703000
8.09783798	-8.46888600	-19.83703000
8.10283798	-8.46888600	-19.83703000
8.10783798	-11.01718000	-19.83703000
8.11283798	-12.19214000	-19.83703000
8.11783798	-11.96325000	-19.83703000
8.12283798	-11.90222000	-19.83703000
8.12783798	-11.90222000	-19.83703000
8.13283798	-11.90222000	-19.83703000
8.13783798	-11.90222000	-19.83703000
8.14283798	-11.90222000	-19.83703000
8.14783798	-11.90222000	-19.83703000
8.15283798	-11.90222000	-19.83703000
8.15783798	-11.90222000	-19.83703000
8.16283798	-11.90222000	-19.83703000
8.16783798	-11.90222000	-19.83703000
8.17283798	-11.90222000	-19.83703000
8.17783798	-11.90222000	-19.83703000
8.18283798	-11.90222000	-19.83703000
8.18783798	-11.90222000	-19.83703000
8.19283798	-11.90222000	-19.83703000
8.19783798	-11.90222000	-19.83703000
8.20283798	-11.90222000	-19.83703000
8.20783798	-11.90222000	-19.83703000
8.21283798	-11.90222000	-19.83703000
8.21783798	-11.90222000	-19.83703000
8.22283798	-11.90222000	-19.83703000
8.22783798	-11.90222000	-19.83703000
8.23283798	-11.90222000	-19.83703000
8.23783798	-11.90222000	-19.83703000
8.24283798	-11.90222000	-19.83703000
8.24783798	-11.90222000	-19.83703000
8.25283798	-11.90222000	-19.83703000
8.25783798	-11.90222000	-19.83703000
8.26283798	-11.90222000	-19.83703000
8.26783798	-11.90222000	-19.83703000
8.27283798	-11.90222000	-19.83703000
8.27783798	-11.90222000	-19.83703000
8.28283798	-11.90222000	-19.89807000
8.28783798	-11.90222000	-20.12696000
8.29283798	-11.90222000	-19.01303000
8.29783798	-11.90222000	-16.69362000
8.30283798	-11.90222000	-15.51866000
8.30783798	-11.90222000	-15.51866000
8.31283798	-11.90222000	-16.69362000
8.31783798	-11.90222000	-19.01303000
8.32283798	-11.90222000	-20.12696000
8.32783798	-11.90222000	-19.89807000
8.33283798	-11.90222000	-19.83703000
8.33783798	-11.90222000	-19.83703000
8.34283798	-11.90222000	-19.83703000
8.34783798	-11.90222000	-19.83703000
8.35283798	-11.90222000	-19.83703000
8.35783798	-11.90222000	-19.83703000
8.36283798	-11.90222000	-19.83703000
8.36783798	-11.90222000	-19.83703000
8.37283798	-11.90222000	-19.83703000
8.37783798	-11.90222000	-19.83703000
8.38283798	-11.90222000	-19.83703000
8.38783798	-11.90222000	-19.83703000
8.39283798	-11.90222000	-19.83703000
8.39783798	-11.90222000	-19.83703000
8.40283798	-11.90222000	-19.89807000
8.40783798	-11.90222000	-20.12696000
8.41283798	-11.90222000	-19.01303000
8.41783798	-11.90222000	-16.69362000
8.42283798	-11.90222000	-15.57970000
8.42783798	-11.90222000	-15.80859000
8.43283798	-11.90222000	-15.80859000
8.43783798	-11.90222000	-15.57970000
8.44283798	-11.90222000	-16.75466000
8.44783798	-11.90222000	-19.30296000
8.45283798	-11.90222000	-19.30296000
8.45783798	-11.90222000	-16.75466000
8.46283798	-11.90222000	-15.57970000
8.46783798	-11.90222000	-15.80859000
8.47283798	-11.90222000	-15.86962000
8.47783798	-11.90222000	-15.86962000
8.48283798	-11.90222000	-15.80859000
8.48783798	-11.90222000	-15.57970000
8.49283798	-11.90222000	-16.69362000
8.49783798	-11.90222000	-19.01303000
8.50283798	-11.90222000	-20.18799000
8.50783798	-11.90222000	-20.18799000
8.51283797	-11.90222000	-18.95199000
8.51783797	-11.90222000	-16.40370000
8.52283797	-11.90222000	-16.40370000
8.52783797	-11.90222000	-18.95199000
8.53283797	-11.90222000	-20.12696000
8.53783797	-11.90222000	-19.89807000
8.54283797	-11.90222000	-19.83703000
8.54783797	-11.90222000	-19.83703000
8.55283797	-11.90222000	-19.83703000
8.55783797	-11.90222000	-19.83703000
8.56283797	-11.90222000	-19.83703000
8.56783797	-11.90222000	-19.83703000
8.57283797	-11.90222000	-19.89807000
8.57783797	-11.90222000	-20.12696000
8.58283797	-11.90222000	-18.95199000
8.58783797	-11.90222000	-16.40370000
8.59283797	-11.90222000	-16.46474000
8.59783797	-11.90222000	-19.24192000
8.60283797	-11.90222000	-19.24192000
8.60783797	-11.90222000	-16.46474000
8.61283797	-11.90222000	-16.40370000
8.61783797	-11.90222000	-18.95199000
8.62283797	-11.90222000	-20.18799000
8.62783797	-11.90222000	-20.18799000
8.63283797	-11.90222000	-18.95199000
8.63783797	-11.90222000	-16.40370000
8.64283797	-11.90222000	-16.40370000
8.64783797	-11.90222000	-18.95199000
8.65283797	-11.90222000	-20.12696000
8.65783797	-11.90222000	-19.89807000
8.66283797	-11.90222000	-19.83703000
8.66783797	-11.90222000	-19.83703000
8.67283797	-11.90222000	-19.83703000
8.67783797	-11.90222000	-19.83703000
8.68283797	-11.90222000	-19.83703000
8.68783797	-11.90222000	-19.83703000
8.69283797	-11.90222000	-19.83703000
8.69783797	-11.90222000	-19.83703000
8.70283797	-11.90222000	-19.83703000
8.70783797	-11.90222000	-19.83703000
8.71283797	-11.90222000	-19.83703000
8.71783797	-11.90222000	-19.83703000
8.72283797	-11.90222000	-19.83703000
8.72783797	-11.90222000	-19.83703000
8.73283797	-11.90222000	-19.83703000
8.73783797	-11.90222000	-19.83703000
8.74283797	-11.90222000	-19.83703000
8.74783797	-11.90222000	-19.83703000
8.75283797	-11.90222000	-19.83703000
8.75783797	-11.90222000	-19.83703000
8.76283797	-11.90222000	-19.83703000
8.76783797	-11.90222000	-19.83703000
8.77283797	-11.90222000	-19.83703000
8.77783797	-11.90222000	-19.83703000
8.78283797	-11.90222000	-19.83703000
8.78783797	-11.90222000	-19.83703000
8.79283797	-11.90222000	-19.83703000
8.79783797	-11.90222000	-19.83703000
8.80283797	-11.90222000	-19.83703000
8.80783797	-11.90222000	-19.83703000
8.81283797	-11.90222000	-19.83703000
8.81783797	-11.90222000	-19.83703000
8.82283797	-11.90222000	-19.83703000
8.82783797	-11.90222000	-19.83703000
8.83283797	-11.90222000	-19.83703000
8.83783797	-11.90222000	-19.83703000
8.84283797	-11.90222000	-19.83703000
8.84783797	-11.90222000	-19.83703000
8.85283797	-11.90222000	-19.89807000
8.85783797	-11.90222000	-20.12696000
8.86283797	-11.90222000	-18.95199000
8.86783797	-11.90222000	-16.40370000
8.87283797	-11.90222000	-16.46474000
8.87783797	-11.90222000	-19.24192000
8.88283797	-11.90222000	-19.24192000
8.88783797	-11.90222000	-16.46474000
8.89283797	-11.90222000	-16.40370000
8.89783797	-11.90222000	-18.95199000
8.90283797	-11.90222000	-20.12696000
8.90783797	-11.90222000	-19.89807000
8.91283797	-11.90222000	-19.83703000
8.91783797	-11.90222000	-19.83703000
8.92283797	-11.90222000	-19.83703000
8.92783797	-11.90222000	-19.83703000
8.93283797	-11.90222000	-19.83703000
8.93783797	-11.90222000	-19.83703000
8.94283797	-11.84118000	-19.83703000
8.94783797	-11.61229000	-19.83703000
8.95283797	-12.78725000	-19.83703000
8.95783797	-15.33555000	-19.83703000
8.96283797	-15.33555000	-19.83703000
8.96783797	-12.78725000	-19.83703000
8.97283797	-11.61229000	-19.83703000
8.97783797	-11.84118000	-19.83703000
8.98283797	-11.90222000	-19.83703000
8.98783797	-11.90222000	-19.83703000
8.99283797	-11.90222000	-19.83703000
8.99783797	-11.90222000	-19.83703000
9.00283797	-11.90222000	-19.83703000
9.00783797	-11.90222000	-19.83703000
9.01283797	-11.90222000	-19.83703000
9.01783797	-11.90222000	-19.83703000
9.02283797	-11.90222000	-19.83703000
9.02783797	-11.90222000	-19.83703000
