Time	Channel A	Channel B
(us)	(mV)	(mV)

-1.01134598	-15.86962000	-17.43217000
-1.00634598	-15.86962000	-17.34062000
-1.00134598	-15.86962000	-17.76177000
-0.99634598	-15.86962000	-18.59798000
-0.99134598	-15.80859000	-19.51353000
-0.98634598	-15.57970000	-20.44130000
-0.98134598	-16.75466000	-20.41688000
-0.97634598	-19.30296000	-19.39757000
-0.97134598	-19.30296000	-18.92758000
-0.96634598	-16.75466000	-19.01913000
-0.96134598	-15.57970000	-19.04355000
-0.95634598	-15.80859000	-19.04355000
-0.95134598	-15.80859000	-19.04355000
-0.94634598	-15.57970000	-19.04355000
-0.94134598	-16.75466000	-19.01913000
-0.93634598	-19.30296000	-18.92758000
-0.93134598	-19.30296000	-19.37315000
-0.92634598	-16.75466000	-20.30091000
-0.92134598	-15.51866000	-20.77090000
-0.91634598	-15.51866000	-20.77090000
-0.91134598	-16.75466000	-20.27650000
-0.90634598	-19.30296000	-19.25718000
-0.90134598	-19.30296000	-19.28160000
-0.89634598	-16.75466000	-20.39247000
-0.89134598	-15.57970000	-20.41688000
-0.88634598	-15.80859000	-19.39757000
-0.88134598	-15.86962000	-18.90317000
-0.87634598	-15.86962000	-18.90317000
-0.87134598	-15.80859000	-19.37315000
-0.86634598	-15.57970000	-20.30091000
-0.86134598	-16.75466000	-20.74648000
-0.85634598	-19.30296000	-20.65493000
-0.85134598	-19.30296000	-20.65493000
-0.84634598	-16.75466000	-20.74648000
-0.84134598	-15.57970000	-20.30091000
-0.83634598	-15.80859000	-19.37315000
-0.83134598	-15.86962000	-18.95199000
-0.82634598	-15.86962000	-19.13511000
-0.82134599	-15.80859000	-18.71395000
-0.81634599	-15.57970000	-17.78619000
-0.81134599	-16.75466000	-17.31620000
-0.80634599	-19.30296000	-17.31620000
-0.80134599	-19.24192000	-17.81060000
-0.79634599	-16.46474000	-18.82992000
-0.79134599	-16.40370000	-18.82992000
-0.78634599	-18.95199000	-17.81060000
-0.78134599	-20.12696000	-17.31620000
-0.77634599	-19.89807000	-17.31620000
-0.77134599	-19.83703000	-17.81060000
-0.76634599	-19.83703000	-18.82992000
-0.76134599	-19.89807000	-18.80550000
-0.75634599	-20.12696000	-17.69463000
-0.75134599	-18.95199000	-17.64580000
-0.74634599	-16.40370000	-18.57356000
-0.74134599	-16.40370000	-19.51353000
-0.73634599	-18.95199000	-20.44130000
-0.73134599	-20.18799000	-20.41688000
-0.72634599	-20.18799000	-19.39757000
-0.72134599	-18.95199000	-18.92758000
-0.71634599	-16.40370000	-19.01913000
-0.71134599	-16.40370000	-19.04355000
-0.70634599	-18.95199000	-19.04355000
-0.70134599	-20.18799000	-19.04355000
-0.69634599	-20.18799000	-19.04355000
-0.69134599	-18.95199000	-19.01913000
-0.68634599	-16.40370000	-18.92758000
-0.68134599	-16.46474000	-19.39757000
-0.67634599	-19.24192000	-20.41688000
-0.67134599	-19.24192000	-20.41688000
-0.66634599	-16.46474000	-19.39757000
-0.66134599	-16.40370000	-18.92758000
-0.65634599	-18.95199000	-19.01913000
-0.65134599	-20.18799000	-19.04355000
-0.64634599	-20.18799000	-19.04355000
-0.64134599	-19.01303000	-19.01913000
-0.63634599	-16.69362000	-18.92758000
-0.63134599	-15.57970000	-19.39757000
-0.62634599	-15.80859000	-20.41688000
-0.62134599	-15.80859000	-20.41688000
-0.61634599	-15.57970000	-19.39757000
-0.61134599	-16.75466000	-18.90317000
-0.60634599	-19.30296000	-18.90317000
-0.60134599	-19.30296000	-19.42198000
-0.59634599	-16.75466000	-20.53285000
-0.59134599	-15.57970000	-20.06287000
-0.58634599	-15.80859000	-18.02423000
-0.58134599	-15.80859000	-17.55425000
-0.57634599	-15.57970000	-18.66512000
-0.57134599	-16.69362000	-19.15952000
-0.56634599	-19.01303000	-19.06796000
-0.56134599	-20.18799000	-19.01913000
-0.55634599	-20.18799000	-18.92758000
-0.55134599	-19.01303000	-19.39757000
-0.54634599	-16.69362000	-20.41688000
-0.54134599	-15.57970000	-20.41688000
-0.53634599	-15.80859000	-19.39757000
-0.53134599	-15.86962000	-18.90317000
-0.52634599	-15.86962000	-18.90317000
-0.52134599	-15.86962000	-19.39757000
-0.51634599	-15.86962000	-20.41688000
-0.51134599	-15.86962000	-20.39247000
-0.50634599	-15.86962000	-19.28160000
-0.50134599	-15.86962000	-19.25718000
-0.49634599	-15.86962000	-20.27650000
-0.49134599	-15.80859000	-20.74648000
-0.48634599	-15.57970000	-20.65493000
-0.48134599	-16.75466000	-20.65493000
-0.47634599	-19.30296000	-20.74648000
-0.47134599	-19.30296000	-20.27650000
-0.46634599	-16.75466000	-19.25718000
-0.46134599	-15.57970000	-19.25718000
-0.45634599	-15.80859000	-20.27650000
-0.45134599	-15.86962000	-20.77090000
-0.44634599	-15.86962000	-20.77090000
-0.44134599	-15.80859000	-20.27650000
-0.43634599	-15.57970000	-19.25718000
-0.43134599	-16.69362000	-19.28160000
-0.42634599	-19.01303000	-20.39247000
-0.42134599	-20.12696000	-20.39247000
-0.41634599	-19.89807000	-19.28160000
-0.41134599	-19.89807000	-19.28160000
-0.40634599	-20.12696000	-20.39247000
-0.40134599	-19.01303000	-20.41688000
-0.39634599	-16.69362000	-19.39757000
-0.39134599	-15.57970000	-18.92758000
-0.38634599	-15.80859000	-19.01913000
-0.38134599	-15.86962000	-19.04355000
-0.37634599	-15.86962000	-19.04355000
-0.37134599	-15.86962000	-19.04355000
-0.36634599	-15.86962000	-19.04355000
-0.36134599	-15.86962000	-19.04355000
-0.35634599	-15.86962000	-19.04355000
-0.35134599	-15.86962000	-19.04355000
-0.34634599	-15.86962000	-19.04355000
-0.34134599	-15.86962000	-19.01913000
-0.33634599	-15.86962000	-18.92758000
-0.33134599	-15.80859000	-19.39757000
-0.32634599	-15.57970000	-20.41688000
-0.32134599	-16.75466000	-20.41688000
-0.31634599	-19.30296000	-19.39757000
-0.31134599	-19.24192000	-18.92758000
-0.30634599	-16.46474000	-19.01913000
-0.30134599	-16.46474000	-19.04355000
-0.29634599	-19.24192000	-19.04355000
-0.29134599	-19.30296000	-19.06796000
-0.28634599	-16.75466000	-19.15952000
-0.28134599	-15.57970000	-18.71395000
-0.27634599	-15.80859000	-17.78619000
-0.27134599	-15.86962000	-17.34062000
-0.26634599	-15.86962000	-17.43217000
-0.26134599	-15.86962000	-17.45659000
-0.25634599	-15.86962000	-17.45659000
-0.25134599	-15.86962000	-17.45659000
-0.24634599	-15.86962000	-17.45659000
-0.24134599	-15.86962000	-17.48100000
-0.23634599	-15.86962000	-17.57256000
-0.23134599	-15.86962000	-17.12699000
-0.22634599	-15.86962000	-16.19922000
-0.22134599	-15.86962000	-15.75365000
-0.21634599	-15.86962000	-15.84521000
-0.21134599	-15.86962000	-15.84521000
-0.20634599	-15.86962000	-15.75365000
-0.20134599	-15.86962000	-16.22364000
-0.19634599	-15.86962000	-17.24296000
-0.19134599	-15.86962000	-17.24296000
-0.18634599	-15.86962000	-16.22364000
-0.18134599	-15.86962000	-15.72924000
-0.17634599	-15.86962000	-15.72924000
-0.17134599	-15.86962000	-16.19922000
-0.16634599	-15.86962000	-17.12699000
-0.16134599	-15.86962000	-17.57256000
-0.15634599	-15.86962000	-17.48100000
-0.15134599	-15.86962000	-17.45659000
-0.14634599	-15.86962000	-17.45659000
-0.14134599	-15.86962000	-17.48100000
-0.13634599	-15.86962000	-17.57256000
-0.13134599	-15.86962000	-17.10257000
-0.12634599	-15.86962000	-16.08325000
-0.12134599	-15.99170000	-16.03443000
-0.11634599	-16.44948000	-16.87063000
-0.11134599	-14.32844000	-18.21345000
-0.10634599	-10.17792000	-19.87365000
-0.10134599	-5.81377600	-21.14933000
-0.09634599	-2.12103600	-21.69866000
-0.09134599	2.05999900	-22.97433000
-0.08634599	5.52385000	-24.63454000
-0.08134599	10.81881000	-25.91021000
-0.07634599	16.60207000	-26.45955000
-0.07134599	23.01095000	-27.75964000
-0.06634599	28.56532000	-29.51750000
-0.06134599	34.91317000	-30.39033000
-0.05634599	40.46754000	-30.20722000
-0.05134599	46.81539000	-30.18280000
-0.04634599	52.36976000	-30.27436000
-0.04134599	58.71761000	-29.85321000
-0.03634599	64.27197000	-29.01700000
-0.03134599	70.68087000	-28.11975000
-0.02634599	76.47938000	-27.28355000
-0.02134599	81.71330000	-26.88681000
-0.01634599	84.94827000	-27.06992000
-0.01134599	90.24323000	-26.67318000
-0.00634599	96.25537000	-25.83697000
-0.00134599	101.55030000	-24.97024000
0.00365401	104.78530000	-24.22559000
0.00865401	110.08030000	-23.35887000
0.01365401	116.09240000	-22.52266000
0.01865401	121.38740000	-22.10150000
0.02365401	124.62230000	-22.19306000
0.02865401	129.91730000	-22.21748000
0.03365401	135.92940000	-22.21748000
0.03865401	141.28540000	-22.21748000
0.04365401	144.76450000	-22.21748000
0.04865401	148.94560000	-22.21748000
0.05365401	152.63830000	-22.21748000
0.05865401	156.88040000	-22.19306000
0.06365401	160.57310000	-22.10150000
0.06865401	164.81520000	-22.57149000
0.07365401	168.50790000	-23.59081000
0.07865401	172.81110000	-23.56639000
0.08365401	176.73270000	-22.45552000
0.08865401	179.86080000	-22.40669000
0.09365401	181.23420000	-23.33445000
0.09865401	184.42330000	-24.25001000
0.10365401	188.57390000	-25.08622000
0.10865401	191.76300000	-25.50737000
0.11365401	193.13640000	-25.41581000
0.11865401	196.32560000	-25.36699000
0.12365401	200.47610000	-25.27543000
0.12865401	203.77210000	-25.72100000
0.13365401	205.63370000	-26.64876000
0.13865401	206.56450000	-27.06992000
0.14365401	206.10670000	-26.88681000
0.14865401	207.15960000	-27.33238000
0.15365401	209.47900000	-28.35780000
0.15865401	210.59300000	-28.35780000
0.16365401	210.36410000	-27.33238000
0.16865401	210.36410000	-26.86239000
0.17365401	210.59300000	-26.95395000
0.17865401	209.54010000	-27.00278000
0.18365401	207.44960000	-27.09433000
0.18865401	205.22170000	-26.67318000
0.19365401	203.13120000	-25.83697000
0.19865401	202.13930000	-24.97024000
0.20365401	202.59710000	-24.22559000
0.20865401	201.60530000	-23.33445000
0.21365401	199.51480000	-22.40669000
0.21865401	197.34790000	-22.45552000
0.22365401	195.48630000	-23.56639000
0.22865401	193.38050000	-23.59081000
0.23365401	191.51890000	-22.57149000
0.23865401	189.35210000	-22.10150000
0.24365401	187.26160000	-22.19306000
0.24865401	186.26970000	-22.21748000
0.25365401	186.72750000	-22.21748000
0.25865401	185.73560000	-22.21748000
0.26365401	183.64510000	-22.21748000
0.26865401	181.41730000	-22.21748000
0.27365401	179.32680000	-22.21748000
0.27865401	178.33490000	-22.19306000
0.28365401	178.79270000	-22.10150000
0.28865401	177.80080000	-22.57149000
0.29365401	175.71030000	-23.59081000
0.29865401	173.48250000	-23.56639000
0.30365401	171.39190000	-22.45552000
0.30865401	170.40010000	-22.43110000
0.31365401	170.85790000	-23.45042000
0.31865401	169.80500000	-23.89599000
0.32365401	167.48560000	-23.71288000
0.32865401	166.37160000	-24.13404000
0.33365401	166.60050000	-25.06180000
0.33865401	166.72260000	-25.53178000
0.34365401	166.95150000	-25.53178000
0.34865401	165.83760000	-25.03738000
0.35365401	163.51820000	-24.01807000
0.35865401	162.46530000	-24.01807000
0.36365401	162.92310000	-25.03738000
0.36865401	161.87020000	-25.55620000
0.37365401	159.55080000	-25.64775000
0.37865401	158.43680000	-24.73220000
0.38365401	158.66570000	-22.87667000
0.38865401	158.72680000	-22.00995000
0.39365401	158.72680000	-22.28461000
0.39865401	158.78780000	-21.88787000
0.40365401	159.01670000	-20.96011000
0.40865401	157.90280000	-20.53896000
0.41365401	155.58340000	-20.72207000
0.41865401	154.46940000	-20.30091000
0.42365401	154.69830000	-19.37315000
0.42865401	154.75940000	-18.92758000
0.43365401	154.75940000	-19.01913000
0.43865401	154.82040000	-19.04355000
0.44365401	155.04930000	-19.04355000
0.44865401	153.93530000	-19.04355000
0.45365401	151.61590000	-19.04355000
0.45865401	150.50200000	-19.04355000
0.46365401	150.73090000	-19.04355000
0.46865401	150.79190000	-19.01913000
0.47365401	150.79190000	-18.92758000
0.47865401	150.79190000	-19.37315000
0.48365401	150.79190000	-20.30091000
0.48865401	150.85300000	-20.72207000
0.49365401	151.08190000	-20.53896000
0.49865401	149.96790000	-20.98453000
0.50365401	147.64850000	-22.00385000
0.50865401	146.53460000	-21.97943000
0.51365401	146.76350000	-20.86856000
0.51865401	146.82450000	-20.86856000
0.52365401	146.82450000	-21.97943000
0.52865401	146.88560000	-21.97943000
0.53365401	147.11450000	-20.86856000
0.53865401	146.00050000	-20.84414000
0.54365401	143.68110000	-21.86346000
0.54865401	142.56720000	-22.38227000
0.55365401	142.79610000	-22.47383000
0.55865401	142.85710000	-21.55827000
0.56365401	142.85710000	-19.70275000
0.56865401	142.85710000	-18.81161000
0.57365401	142.85710000	-18.99472000
0.57865401	142.91820000	-19.04355000
0.58365401	143.14710000	-19.04355000
0.58865401	142.03310000	-19.06796000
0.59365401	139.69850000	-19.15952000
0.59865401	138.58450000	-18.68954000
0.60365401	138.81340000	-17.67022000
0.60865401	138.93550000	-17.69463000
0.61365401	139.16440000	-18.80550000
0.61865401	137.98940000	-18.85434000
0.62365401	135.44110000	-17.92657000
0.62865401	135.50220000	-16.98660000
0.63365401	138.27940000	-16.05884000
0.63865401	138.34040000	-16.05884000
0.64365401	135.79210000	-16.98660000
0.64865401	134.61710000	-17.95099000
0.65365401	134.84600000	-18.97031000
0.65865401	134.90710000	-18.47591000
0.66365401	134.90710000	-16.43727000
0.66865401	134.96810000	-15.96728000
0.67365401	135.19700000	-17.07816000
0.67865401	134.02200000	-17.54814000
0.68365401	131.47370000	-17.36503000
0.68865401	131.53480000	-17.78619000
0.69365401	134.31200000	-18.71395000
0.69865401	134.37300000	-19.15952000
0.70365401	131.82470000	-19.06796000
0.70865401	130.64970000	-19.04355000
0.71365401	130.87860000	-19.04355000
0.71865401	131.00070000	-19.01913000
0.72365401	131.22960000	-18.92758000
0.72865401	130.11560000	-19.37315000
0.73365401	127.79630000	-20.30091000
0.73865401	126.68230000	-20.74648000
0.74365401	126.91120000	-20.65493000
0.74865401	126.97230000	-20.63051000
0.75365401	126.97230000	-20.63051000
0.75865401	126.97230000	-20.63051000
0.76365401	126.97230000	-20.63051000
0.76865401	127.03330000	-20.63051000
0.77365401	127.26220000	-20.63051000
0.77865401	126.14820000	-20.63051000
0.78365401	123.82880000	-20.63051000
0.78865401	122.71490000	-20.65493000
0.79365401	122.94380000	-20.74648000
0.79865401	123.00480000	-20.30091000
0.80365401	123.00480000	-19.37315000
0.80865401	123.00480000	-18.92758000
0.81365401	123.00480000	-19.01913000
0.81865401	123.06590000	-19.04355000
0.82365400	123.29480000	-19.04355000
0.82865400	122.11980000	-19.01913000
0.83365400	119.57150000	-18.92758000
0.83865400	119.63260000	-19.39757000
0.84365400	122.40970000	-20.41688000
0.84865400	122.47080000	-20.41688000
0.85365400	119.92250000	-19.39757000
0.85865400	118.74750000	-18.92758000
0.86365400	118.97640000	-19.01913000
0.86865400	119.03740000	-19.04355000
0.87365400	119.03740000	-19.04355000
0.87865400	119.03740000	-19.06796000
0.88365400	119.03740000	-19.15952000
0.88865400	119.09850000	-18.73836000
0.89365400	119.32740000	-17.90216000
0.89865400	118.21340000	-16.96219000
0.90365400	115.89400000	-15.94287000
0.90865400	114.78010000	-16.41285000
0.91365400	115.00900000	-18.35994000
0.91865400	115.07000000	-19.27549000
0.92365400	115.07000000	-19.09238000
0.92865400	115.13110000	-19.04355000
0.93365400	115.36000000	-19.04355000
0.93865400	114.24600000	-19.04355000
0.94365400	111.92660000	-19.04355000
0.94865400	110.81270000	-19.01913000
0.95365400	111.04160000	-18.92758000
0.95865400	111.10260000	-19.37315000
0.96365400	111.10260000	-20.30091000
0.96865400	111.10260000	-20.74648000
0.97365400	111.10260000	-20.65493000
0.97865400	111.10260000	-20.63051000
0.98365400	111.10260000	-20.63051000
0.98865400	111.16370000	-20.63051000
0.99365400	111.39250000	-20.63051000
0.99865400	110.21760000	-20.63051000
1.00365400	107.66930000	-20.63051000
1.00865400	107.73030000	-20.63051000
1.01365400	110.50750000	-20.63051000
1.01865400	110.56860000	-20.65493000
1.02365400	108.02030000	-20.74648000
1.02865400	106.84530000	-20.27650000
1.03365400	107.07420000	-19.25718000
1.03865400	107.13520000	-19.28160000
1.04365400	107.13520000	-20.39247000
1.04865400	107.19630000	-20.39247000
1.05365400	107.42510000	-19.28160000
1.05865400	106.31120000	-19.28160000
1.06365400	103.99180000	-20.39247000
1.06865400	102.81680000	-20.41688000
1.07365400	102.81680000	-19.39757000
1.07865400	104.05280000	-18.92758000
1.08365400	106.60120000	-19.01913000
1.08865400	106.60120000	-19.04355000
1.09365400	104.05280000	-19.04355000
1.09865400	102.87790000	-19.04355000
1.10365400	103.10680000	-19.04355000
1.10865400	103.16780000	-19.04355000
1.11365400	103.16780000	-19.04355000
1.11865400	103.16780000	-19.06796000
1.12365400	103.16780000	-19.15952000
1.12865400	103.22890000	-18.68954000
1.13365400	103.45770000	-17.67022000
1.13865400	102.34380000	-17.69463000
1.14365400	100.02440000	-18.80550000
1.14865400	98.91048000	-18.80550000
1.15365400	99.13937000	-17.69463000
1.15865400	99.20041000	-17.69463000
1.16365400	99.20041000	-18.80550000
1.16865400	99.20041000	-18.82992000
1.17365400	99.20041000	-17.81060000
1.17865400	99.20041000	-17.34062000
1.18365400	99.20041000	-17.43217000
1.18865400	99.26145000	-17.45659000
1.19365400	99.49034000	-17.45659000
1.19865400	98.37641000	-17.45659000
1.20365400	96.05700000	-17.45659000
1.20865400	94.94308000	-17.45659000
1.21365400	95.17197000	-17.45659000
1.21865400	95.23300000	-17.43217000
1.22365400	95.23300000	-17.34062000
1.22865400	95.23300000	-17.81060000
1.23365400	95.23300000	-18.82992000
1.23865400	95.23300000	-18.80550000
1.24365400	95.23300000	-17.69463000
1.24865400	95.23300000	-17.64580000
1.25365400	95.23300000	-18.57356000
1.25865400	95.29404000	-19.51353000
1.26365400	95.52293000	-20.44130000
1.26865400	94.40900000	-20.41688000
1.27365400	92.08959000	-19.39757000
1.27865400	90.97568000	-18.92758000
1.28365400	91.20457000	-19.01913000
1.28865400	91.26560000	-19.04355000
1.29365400	91.26560000	-19.04355000
1.29865400	91.26560000	-19.06796000
1.30365400	91.26560000	-19.15952000
1.30865400	91.26560000	-18.68954000
1.31365400	91.26560000	-17.67022000
1.31865400	91.32664000	-17.67022000
1.32365400	91.55552000	-18.68954000
1.32865400	90.44160000	-19.18394000
1.33365400	88.12219000	-19.18394000
1.33865400	87.00826000	-18.71395000
1.34365400	87.23715000	-17.78619000
1.34865400	87.29819000	-17.31620000
1.35365400	87.29819000	-17.31620000
1.35865400	87.29819000	-17.78619000
1.36365400	87.29819000	-18.71395000
1.36865400	87.29819000	-19.13511000
1.37365400	87.29819000	-18.95199000
1.37865400	87.29819000	-19.37315000
1.38365400	87.29819000	-20.30091000
1.38865400	87.35923000	-20.74648000
1.39365400	87.58812000	-20.65493000
1.39865400	86.47419000	-20.65493000
1.40365400	84.15479000	-20.74648000
1.40865400	83.04086000	-20.30091000
1.41365400	83.26974000	-19.37315000
1.41865400	83.33078000	-18.92758000
1.42365400	83.33078000	-19.01913000
1.42865400	83.33078000	-19.06796000
1.43365400	83.33078000	-19.15952000
1.43865400	83.33078000	-18.71395000
1.44365400	83.33078000	-17.78619000
1.44865400	83.39182000	-17.34062000
1.45365400	83.62070000	-17.43217000
1.45865400	82.50678000	-17.45659000
1.46365400	80.18738000	-17.45659000
1.46865400	79.07346000	-17.45659000
1.47365400	79.30235000	-17.45659000
1.47865400	79.36338000	-17.48100000
1.48365400	79.36338000	-17.57256000
1.48865400	79.36338000	-17.12699000
1.49365400	79.36338000	-16.19922000
1.49865400	79.36338000	-15.72924000
1.50365400	79.36338000	-15.72924000
1.50865400	79.36338000	-16.19922000
1.51365400	79.36338000	-17.12699000
1.51865400	79.36338000	-17.57256000
1.52365400	79.36338000	-17.48100000
1.52865400	79.36338000	-17.45659000
1.53365400	79.36338000	-17.45659000
1.53865400	79.36338000	-17.45659000
1.54365400	79.36338000	-17.45659000
1.54865400	79.36338000	-17.45659000
1.55365400	79.36338000	-17.45659000
1.55865400	79.36338000	-17.45659000
1.56365400	79.36338000	-17.45659000
1.56865400	79.42442000	-17.43217000
1.57365400	79.65331000	-17.34062000
1.57865400	78.53938000	-17.78619000
1.58365400	76.21997000	-18.71395000
1.58865400	75.10605000	-19.15952000
1.59365400	75.33494000	-19.06796000
1.59865400	75.39597000	-19.06796000
1.60365400	75.39597000	-19.15952000
1.60865400	75.45701000	-18.68954000
1.61365400	75.68590000	-17.67022000
1.61865400	74.57197000	-17.69463000
1.62365400	72.25256000	-18.80550000
1.62865400	71.13864000	-18.80550000
1.63365400	71.36753000	-17.69463000
1.63865400	71.42857000	-17.69463000
1.64365400	71.42857000	-18.80550000
1.64865400	71.42857000	-18.82992000
1.65365400	71.42857000	-17.81060000
1.65865400	71.42857000	-17.31620000
1.66365400	71.42857000	-17.31620000
1.66865400	71.42857000	-17.78619000
1.67365400	71.42857000	-18.71395000
1.67865400	71.42857000	-19.15952000
1.68365400	71.42857000	-19.06796000
1.68865400	71.42857000	-19.04355000
1.69365400	71.42857000	-19.04355000
1.69865400	71.42857000	-19.06796000
1.70365400	71.42857000	-19.15952000
1.70865400	71.42857000	-18.71395000
1.71365400	71.42857000	-17.78619000
1.71865400	71.48961000	-17.34062000
1.72365400	71.71850000	-17.43217000
1.72865400	70.60457000	-17.43217000
1.73365400	68.26991000	-17.34062000
1.73865400	67.15598000	-17.78619000
1.74365400	67.38486000	-18.71395000
1.74865400	67.44590000	-19.15952000
1.75365400	67.44590000	-19.06796000
1.75865400	67.44590000	-19.04355000
1.76365400	67.44590000	-19.04355000
1.76865400	67.44590000	-19.04355000
1.77365400	67.44590000	-19.04355000
1.77865400	67.44590000	-19.04355000
1.78365400	67.44590000	-19.04355000
1.78865400	67.44590000	-19.04355000
1.79365400	67.44590000	-19.04355000
1.79865400	67.44590000	-19.06796000
1.80365400	67.44590000	-19.15952000
1.80865400	67.50694000	-18.71395000
1.81365400	67.73582000	-17.78619000
1.81865400	66.62190000	-17.31620000
1.82365400	64.30249000	-17.31620000
1.82865400	63.18857000	-17.78619000
1.83365400	63.41746000	-18.71395000
1.83865400	63.47850000	-19.18394000
1.84365400	63.47850000	-19.18394000
1.84865400	63.47850000	-18.68954000
1.85365400	63.47850000	-17.67022000
1.85865400	63.47850000	-17.67022000
1.86365400	63.47850000	-18.68954000
1.86865400	63.47850000	-19.18394000
1.87365400	63.47850000	-19.18394000
1.87865400	63.53953000	-18.71395000
1.88365400	63.76842000	-17.78619000
1.88865400	62.65450000	-17.34062000
1.89365400	60.33509000	-17.43217000
1.89865400	59.22116000	-17.43217000
1.90365400	59.45005000	-17.34062000
1.90865400	59.45005000	-17.78619000
1.91365400	59.22116000	-18.71395000
1.91865400	60.39613000	-19.18394000
1.92365400	62.94442000	-19.18394000
1.92865400	62.94442000	-18.68954000
1.93365400	60.39613000	-17.67022000
1.93865400	59.22116000	-17.69463000
1.94365400	59.45005000	-18.80550000
1.94865400	59.51109000	-18.80550000
1.95365400	59.51109000	-17.69463000
1.95865400	59.51109000	-17.69463000
1.96365400	59.51109000	-18.80550000
1.96865400	59.57213000	-18.82992000
1.97365400	59.80102000	-17.81060000
1.97865400	58.62605000	-17.34062000
1.98365400	56.07775000	-17.43217000
1.98865400	56.13879000	-17.45659000
1.99365400	58.91598000	-17.45659000
1.99865400	58.91598000	-17.45659000
2.00365400	56.13879000	-17.45659000
2.00865400	56.13879000	-17.45659000
2.01365400	58.91598000	-17.45659000
2.01865400	58.97702000	-17.43217000
2.02365400	56.42872000	-17.34062000
2.02865400	55.25376000	-17.78619000
2.03365400	55.48264000	-18.71395000
2.03865400	55.54368000	-19.15952000
2.04365400	55.54368000	-19.06796000
2.04865400	55.54368000	-19.04355000
2.05365400	55.54368000	-19.04355000
2.05865400	55.54368000	-19.04355000
2.06365400	55.54368000	-19.04355000
2.06865400	55.54368000	-19.04355000
2.07365400	55.54368000	-19.04355000
2.07865400	55.54368000	-19.06796000
2.08365400	55.54368000	-19.15952000
2.08865400	55.54368000	-18.68954000
2.09365400	55.54368000	-17.67022000
2.09865400	55.54368000	-17.64580000
2.10365400	55.54368000	-18.57356000
2.10865400	55.60472000	-19.51353000
2.11365400	55.83361000	-20.44130000
2.11865400	54.71968000	-20.41688000
2.12365400	52.40028000	-19.39757000
2.12865400	51.28635000	-18.90317000
2.13365400	51.51524000	-18.90317000
2.13865400	51.57627000	-19.37315000
2.14365400	51.57627000	-20.30091000
2.14865400	51.57627000	-20.72207000
2.15365400	51.57627000	-20.53896000
2.15865400	51.57627000	-20.98453000
2.16365400	51.57627000	-22.00385000
2.16865400	51.57627000	-22.00385000
2.17365400	51.57627000	-20.98453000
2.17865400	51.57627000	-20.51454000
2.18365400	51.57627000	-20.60610000
2.18865400	51.57627000	-20.60610000
2.19365400	51.57627000	-20.51454000
2.19865400	51.63731000	-20.98453000
2.20365400	51.86620000	-22.00385000
2.20865400	50.75228000	-22.02826000
2.21365400	48.43287000	-21.10050000
2.21865400	47.31895000	-20.18494000
2.22365400	47.54784000	-19.34873000
2.22865400	47.60887000	-18.92758000
2.23365400	47.60887000	-19.01913000
2.23865400	47.60887000	-19.04355000
2.24365400	47.60887000	-19.04355000
2.24865400	47.60887000	-19.06796000
2.25365400	47.60887000	-19.15952000
2.25865400	47.60887000	-18.68954000
2.26365400	47.60887000	-17.67022000
2.26865400	47.60887000	-17.69463000
2.27365400	47.60887000	-18.80550000
2.27865400	47.60887000	-18.82992000
2.28365400	47.60887000	-17.81060000
2.28865400	47.60887000	-17.34062000
2.29365400	47.60887000	-17.43217000
2.29865400	47.60887000	-17.45659000
2.30365400	47.60887000	-17.45659000
2.30865400	47.60887000	-17.45659000
2.31365400	47.60887000	-17.45659000
2.31865400	47.60887000	-17.45659000
2.32365400	47.60887000	-17.45659000
2.32865400	47.60887000	-17.43217000
2.33365400	47.60887000	-17.34062000
2.33865400	47.66991000	-17.81060000
2.34365400	47.89880000	-18.82992000
2.34865400	46.78487000	-18.80550000
2.35365400	44.46547000	-17.69463000
2.35865400	43.35154000	-17.67022000
2.36365400	43.58043000	-18.68954000
2.36865400	43.64147000	-19.15952000
2.37365400	43.64147000	-19.06796000
2.37865400	43.64147000	-19.04355000
2.38365400	43.64147000	-19.04355000
2.38865400	43.64147000	-19.04355000
2.39365400	43.64147000	-19.04355000
2.39865400	43.64147000	-19.04355000
2.40365400	43.64147000	-19.04355000
2.40865400	43.64147000	-19.04355000
2.41365400	43.64147000	-19.04355000
2.41865400	43.64147000	-19.04355000
2.42365400	43.64147000	-19.04355000
2.42865400	43.64147000	-19.01913000
2.43365400	43.64147000	-18.92758000
2.43865400	43.64147000	-19.39757000
2.44365400	43.64147000	-20.41688000
2.44865400	43.64147000	-20.39247000
2.45365400	43.64147000	-19.28160000
2.45865400	43.64147000	-19.28160000
2.46365400	43.64147000	-20.39247000
2.46865400	43.70250000	-20.41688000
2.47365399	43.93139000	-19.39757000
2.47865399	42.81747000	-18.92758000
2.48365399	40.49806000	-19.01913000
2.48865399	39.38414000	-19.04355000
2.49365399	39.61302000	-19.04355000
2.49865399	39.67406000	-19.01913000
2.50365399	39.67406000	-18.92758000
2.50865399	39.67406000	-19.39757000
2.51365399	39.67406000	-20.41688000
2.51865399	39.67406000	-20.41688000
2.52365399	39.67406000	-19.39757000
2.52865399	39.67406000	-18.92758000
2.53365399	39.67406000	-19.01913000
2.53865399	39.67406000	-19.04355000
2.54365399	39.67406000	-19.04355000
2.54865399	39.67406000	-19.04355000
2.55365399	39.67406000	-19.04355000
2.55865399	39.67406000	-19.04355000
2.56365399	39.67406000	-19.04355000
2.56865399	39.67406000	-19.04355000
2.57365399	39.67406000	-19.04355000
2.57865399	39.67406000	-19.04355000
2.58365399	39.67406000	-19.04355000
2.58865399	39.73510000	-19.04355000
2.59365399	39.96399000	-19.04355000
2.59865399	38.85006000	-19.04355000
2.60365399	36.53065000	-19.04355000
2.60865399	35.35569000	-19.06796000
2.61365399	35.35569000	-19.15952000
2.61865399	36.59169000	-18.71395000
2.62365399	39.13999000	-17.78619000
2.62865399	39.13999000	-17.34062000
2.63365399	36.59169000	-17.43217000
2.63865399	35.41673000	-17.48100000
2.64365399	35.64562000	-17.57256000
2.64865399	35.70665000	-17.10257000
2.65365399	35.70665000	-16.08325000
2.65865399	35.70665000	-16.10767000
2.66365399	35.70665000	-17.21854000
2.66865399	35.70665000	-17.21854000
2.67365399	35.70665000	-16.10767000
2.67865399	35.70665000	-16.08325000
2.68365399	35.70665000	-17.10257000
2.68865399	35.70665000	-17.59697000
2.69365399	35.70665000	-17.59697000
2.69865399	35.70665000	-17.10257000
2.70365399	35.70665000	-16.08325000
2.70865399	35.76769000	-16.05884000
2.71365399	35.99658000	-16.98660000
2.71865399	34.82162000	-17.92657000
2.72365399	32.27332000	-18.85434000
2.72865399	32.33436000	-18.82992000
2.73365399	35.11155000	-17.81060000
2.73865399	35.17258000	-17.31620000
2.74365399	32.62428000	-17.31620000
2.74865399	31.44932000	-17.78619000
2.75365399	31.67821000	-18.71395000
2.75865399	31.73925000	-19.18394000
2.76365399	31.73925000	-19.18394000
2.76865399	31.73925000	-18.71395000
2.77365399	31.73925000	-17.78619000
2.77865399	31.73925000	-17.34062000
2.78365399	31.73925000	-17.43217000
2.78865399	31.73925000	-17.43217000
2.79365399	31.73925000	-17.34062000
2.79865399	31.73925000	-17.81060000
2.80365399	31.73925000	-18.82992000
2.80865399	31.73925000	-18.82992000
2.81365399	31.73925000	-17.81060000
2.81865399	31.73925000	-17.34062000
2.82365399	31.73925000	-17.43217000
2.82865399	31.73925000	-17.45659000
2.83365399	31.73925000	-17.45659000
2.83865399	31.73925000	-17.45659000
2.84365399	31.73925000	-17.45659000
2.84865399	31.73925000	-17.43217000
2.85365399	31.73925000	-17.34062000
2.85865399	31.73925000	-17.78619000
2.86365399	31.73925000	-18.71395000
2.86865399	31.73925000	-19.18394000
2.87365399	31.73925000	-19.18394000
2.87865399	31.80028000	-18.68954000
2.88365399	32.02917000	-17.67022000
2.88865399	30.91525000	-17.69463000
2.89365399	28.59584000	-18.80550000
2.89865399	27.48192000	-18.78109000
2.90365399	27.71080000	-17.57866000
2.90865399	27.77184000	-18.02423000
2.91365399	27.77184000	-20.06287000
2.91865399	27.77184000	-20.53285000
2.92365399	27.77184000	-19.42198000
2.92865399	27.77184000	-18.92758000
2.93365399	27.77184000	-19.01913000
2.93865399	27.77184000	-19.04355000
2.94365399	27.77184000	-19.04355000
2.94865399	27.77184000	-19.04355000
2.95365399	27.77184000	-19.04355000
2.95865399	27.77184000	-19.01913000
2.96365399	27.77184000	-18.92758000
2.96865399	27.77184000	-19.37315000
2.97365399	27.77184000	-20.30091000
2.97865399	27.77184000	-20.74648000
2.98365399	27.77184000	-20.65493000
2.98865399	27.77184000	-20.65493000
2.99365399	27.77184000	-20.74648000
2.99865399	27.83288000	-20.30091000
3.00365399	28.06177000	-19.37315000
3.00865399	26.88680000	-18.87875000
3.01365399	24.33851000	-18.78720000
3.01865399	24.39955000	-19.72716000
3.02365399	27.17673000	-21.67424000
3.02865399	27.23777000	-22.09540000
3.03365399	24.68947000	-20.89297000
3.03865399	23.51451000	-20.86856000
3.04365399	23.74340000	-21.97943000
3.04865399	23.80444000	-22.00385000
3.05365399	23.80444000	-20.98453000
3.05865399	23.80444000	-20.53896000
3.06365399	23.80444000	-20.72207000
3.06865399	23.80444000	-20.30091000
3.07365399	23.80444000	-19.37315000
3.07865399	23.80444000	-18.92758000
3.08365399	23.80444000	-19.01913000
3.08865399	23.80444000	-19.04355000
3.09365399	23.80444000	-19.04355000
3.09865399	23.80444000	-19.06796000
3.10365399	23.80444000	-19.15952000
3.10865399	23.80444000	-18.71395000
3.11365399	23.80444000	-17.78619000
3.11865399	23.80444000	-17.34062000
3.12365399	23.80444000	-17.43217000
3.12865399	23.80444000	-17.45659000
3.13365399	23.80444000	-17.45659000
3.13865399	23.80444000	-17.45659000
3.14365399	23.80444000	-17.45659000
3.14865399	23.80444000	-17.45659000
3.15365399	23.80444000	-17.45659000
3.15865399	23.80444000	-17.45659000
3.16365399	23.80444000	-17.45659000
3.16865399	23.80444000	-17.45659000
3.17365399	23.80444000	-17.45659000
3.17865399	23.80444000	-17.45659000
3.18365399	23.80444000	-17.45659000
3.18865399	23.80444000	-17.45659000
3.19365399	23.80444000	-17.45659000
3.19865399	23.80444000	-17.43217000
3.20365399	23.80444000	-17.34062000
3.20865399	23.80444000	-17.78619000
3.21365399	23.80444000	-18.71395000
3.21865399	23.86547000	-19.18394000
3.22365399	24.09436000	-19.18394000
3.22865399	22.91940000	-18.68954000
3.23365399	20.37111000	-17.67022000
3.23865399	20.37111000	-17.69463000
3.24365399	22.91940000	-18.80550000
3.24865399	24.09436000	-18.80550000
3.25365399	23.86547000	-17.69463000
3.25865399	23.86547000	-17.67022000
3.26365399	24.09436000	-18.68954000
3.26865399	22.98043000	-19.15952000
3.27365399	20.66103000	-19.06796000
3.27865399	19.54710000	-19.04355000
3.28365399	19.77599000	-19.04355000
3.28865399	19.83703000	-19.06796000
3.29365399	19.83703000	-19.15952000
3.29865399	19.83703000	-18.68954000
3.30365399	19.83703000	-17.67022000
3.30865399	19.83703000	-17.64580000
3.31365399	19.83703000	-18.57356000
3.31865399	19.83703000	-19.48912000
3.32365399	19.83703000	-20.32533000
3.32865399	19.83703000	-20.77090000
3.33365399	19.83703000	-20.77090000
3.33865399	19.83703000	-20.30091000
3.34365399	19.83703000	-19.37315000
3.34865399	19.83703000	-18.92758000
3.35365399	19.83703000	-19.01913000
3.35865399	19.83703000	-19.04355000
3.36365399	19.83703000	-19.04355000
3.36865399	19.83703000	-19.01913000
3.37365399	19.83703000	-18.92758000
3.37865399	19.83703000	-19.39757000
3.38365399	19.83703000	-20.41688000
3.38865399	19.83703000	-20.39247000
3.39365399	19.83703000	-19.28160000
3.39865399	19.83703000	-19.25718000
3.40365399	19.83703000	-20.27650000
3.40865399	19.83703000	-20.74648000
3.41365399	19.83703000	-20.65493000
3.41865399	19.83703000	-20.65493000
3.42365399	19.83703000	-20.74648000
3.42865399	19.83703000	-20.30091000
3.43365399	19.83703000	-19.37315000
3.43865399	19.83703000	-18.92758000
3.44365399	19.83703000	-19.01913000
3.44865399	19.83703000	-19.01913000
3.45365399	19.83703000	-18.92758000
3.45865399	19.83703000	-19.39757000
3.46365399	19.83703000	-20.41688000
3.46865399	19.89807000	-20.39247000
3.47365399	20.12696000	-19.28160000
3.47865399	19.01303000	-19.25718000
3.48365399	16.69362000	-20.27650000
3.48865399	15.57970000	-20.74648000
3.49365399	15.80859000	-20.65493000
3.49865399	15.86962000	-20.63051000
3.50365399	15.86962000	-20.63051000
3.50865399	15.86962000	-20.65493000
3.51365399	15.86962000	-20.74648000
3.51865399	15.86962000	-20.27650000
3.52365399	15.86962000	-19.25718000
3.52865399	15.86962000	-19.25718000
3.53365399	15.86962000	-20.27650000
3.53865399	15.86962000	-20.77090000
3.54365399	15.86962000	-20.77090000
3.54865399	15.86962000	-20.25208000
3.55365399	15.86962000	-19.14121000
3.55865399	15.86962000	-19.58678000
3.56365399	15.86962000	-21.53386000
3.56865399	15.86962000	-22.44942000
3.57365399	15.86962000	-22.26630000
3.57865399	15.86962000	-22.24189000
3.58365399	15.86962000	-22.33344000
3.58865399	15.86962000	-21.86346000
3.59365399	15.86962000	-20.84414000
3.59865399	15.86962000	-20.84414000
3.60365399	15.86962000	-21.86346000
3.60865399	15.86962000	-22.35786000
3.61365399	15.86962000	-22.35786000
3.61865399	15.86962000	-21.86346000
3.62365399	15.86962000	-20.84414000
3.62865399	15.86962000	-20.86856000
3.63365399	15.86962000	-21.97943000
3.63865399	15.86962000	-22.00385000
3.64365399	15.86962000	-20.98453000
3.64865399	15.86962000	-20.53896000
3.65365399	15.86962000	-20.72207000
3.65865399	15.86962000	-20.27650000
3.66365399	15.86962000	-19.25718000
3.66865399	15.86962000	-19.25718000
3.67365399	15.86962000	-20.27650000
3.67865399	15.86962000	-20.77090000
3.68365399	15.86962000	-20.77090000
3.68865399	15.86962000	-20.30091000
3.69365399	15.86962000	-19.37315000
3.69865399	15.86962000	-18.95199000
3.70365399	15.86962000	-19.13511000
3.70865399	15.86962000	-18.71395000
3.71365399	15.86962000	-17.78619000
3.71865399	15.86962000	-17.34062000
3.72365399	15.86962000	-17.43217000
3.72865399	15.86962000	-17.45659000
3.73365399	15.86962000	-17.45659000
3.73865399	15.93066000	-17.45659000
3.74365399	16.15955000	-17.45659000
3.74865399	15.04562000	-17.43217000
3.75365399	12.72622000	-17.34062000
3.75865399	11.61229000	-17.78619000
3.76365399	11.84118000	-18.71395000
3.76865399	11.90222000	-19.15952000
3.77365399	11.90222000	-19.06796000
3.77865399	11.84118000	-19.04355000
3.78365399	11.61229000	-19.04355000
3.78865399	12.78725000	-19.04355000
3.79365399	15.33555000	-19.04355000
3.79865399	15.33555000	-19.01913000
3.80365399	12.78725000	-18.92758000
3.80865399	11.61229000	-19.39757000
3.81365399	11.84118000	-20.41688000
3.81865399	11.90222000	-20.41688000
3.82365399	11.90222000	-19.39757000
3.82865399	11.90222000	-18.90317000
3.83365399	11.90222000	-18.90317000
3.83865399	11.90222000	-19.39757000
3.84365399	11.90222000	-20.41688000
3.84865399	11.90222000	-20.41688000
3.85365399	11.90222000	-19.39757000
3.85865399	11.90222000	-18.90317000
3.86365399	11.90222000	-18.90317000
3.86865399	11.90222000	-19.39757000
3.87365399	11.90222000	-20.41688000
3.87865399	11.90222000	-20.41688000
3.88365399	11.90222000	-19.39757000
3.88865399	11.90222000	-18.90317000
3.89365399	11.90222000	-18.90317000
3.89865399	11.90222000	-19.39757000
3.90365399	11.90222000	-20.41688000
3.90865399	11.90222000	-20.41688000
3.91365399	11.90222000	-19.39757000
3.91865399	11.90222000	-18.92758000
3.92365399	11.90222000	-19.01913000
3.92865399	11.90222000	-19.01913000
3.93365399	11.90222000	-18.92758000
3.93865399	11.90222000	-19.37315000
3.94365399	11.90222000	-20.30091000
3.94865399	11.90222000	-20.77090000
3.95365399	11.90222000	-20.77090000
3.95865399	11.90222000	-20.30091000
3.96365399	11.90222000	-19.37315000
3.96865399	11.90222000	-18.92758000
3.97365399	11.90222000	-19.01913000
3.97865399	11.90222000	-19.04355000
3.98365399	11.90222000	-19.04355000
3.98865399	11.96325000	-19.06796000
3.99365399	12.19214000	-19.15952000
3.99865399	11.07822000	-18.68954000
4.00365399	8.75881200	-17.67022000
4.00865399	7.58384900	-17.67022000
4.01365399	7.58384900	-18.68954000
4.01865399	8.75881200	-19.18394000
4.02365399	11.07822000	-19.18394000
4.02865399	12.19214000	-18.71395000
4.03365399	11.96325000	-17.78619000
4.03865399	11.96325000	-17.34062000
4.04365399	12.19214000	-17.43217000
4.04865399	11.07822000	-17.43217000
4.05365399	8.75881200	-17.34062000
4.05865399	7.64488600	-17.81060000
4.06365399	7.87377500	-18.82992000
4.06865399	7.93481200	-18.80550000
4.07365399	7.93481200	-17.69463000
4.07865399	7.93481200	-17.67022000
4.08365399	7.93481200	-18.68954000
4.08865399	7.93481200	-19.15952000
4.09365399	7.93481200	-19.06796000
4.09865399	7.93481200	-19.01913000
4.10365399	7.93481200	-18.92758000
4.10865399	7.93481200	-19.37315000
4.11365399	7.93481200	-20.30091000
4.11865398	7.93481200	-20.77090000
4.12365398	7.93481200	-20.77090000
4.12865398	7.93481200	-20.32533000
4.13365398	7.93481200	-19.48912000
4.13865398	7.93481200	-18.59798000
4.14365398	7.93481200	-17.76177000
4.14865398	7.93481200	-17.31620000
4.15365398	7.93481200	-17.31620000
4.15865398	7.93481200	-17.78619000
4.16365398	7.93481200	-18.71395000
4.16865398	7.93481200	-19.13511000
4.17365398	7.93481200	-18.95199000
4.17865398	7.93481200	-19.39757000
4.18365398	7.93481200	-20.41688000
4.18865398	7.93481200	-20.39247000
4.19365398	7.93481200	-19.28160000
4.19865398	7.93481200	-19.25718000
4.20365398	7.93481200	-20.27650000
4.20865398	7.93481200	-20.72207000
4.21365398	7.93481200	-20.53896000
4.21865398	7.93481200	-20.96011000
4.22365398	7.93481200	-21.88787000
4.22865398	7.93481200	-22.38227000
4.23365398	7.93481200	-22.47383000
4.23865398	7.93481200	-21.53386000
4.24365398	7.93481200	-19.58678000
4.24865398	7.93481200	-19.16562000
4.25365398	7.93481200	-20.36805000
4.25865398	7.93481200	-20.44130000
4.26365398	7.93481200	-19.51353000
4.26865398	7.99584900	-18.59798000
4.27365398	8.22473800	-17.76177000
4.27865398	7.04977500	-17.31620000
4.28365398	4.50148000	-17.31620000
4.28865398	4.50148000	-17.78619000
4.29365398	7.04977500	-18.71395000
4.29865398	8.22473800	-19.18394000
4.30365398	7.99584900	-19.18394000
4.30865398	7.93481200	-18.68954000
4.31365398	7.93481200	-17.67022000
4.31865398	7.99584900	-17.69463000
4.32365398	8.22473800	-18.80550000
4.32865398	7.11081200	-18.80550000
4.33365398	4.79140600	-17.69463000
4.33865398	3.67748000	-17.67022000
4.34365398	3.90636900	-18.68954000
4.34865398	3.90636900	-19.18394000
4.35365398	3.67748000	-19.18394000
4.35865398	4.85244300	-18.68954000
4.36365398	7.40073800	-17.67022000
4.36865398	7.40073800	-17.67022000
4.37365398	4.85244300	-18.68954000
4.37865398	3.61644300	-19.13511000
4.38365398	3.61644300	-18.95199000
4.38865398	4.85244300	-19.39757000
4.39365398	7.40073800	-20.41688000
4.39865398	7.40073800	-20.39247000
4.40365398	4.85244300	-19.28160000
4.40865398	3.67748000	-19.25718000
4.41365398	3.90636900	-20.27650000
4.41865398	3.96740600	-20.77090000
4.42365398	3.96740600	-20.77090000
4.42865398	3.96740600	-20.30091000
4.43365398	3.96740600	-19.37315000
4.43865398	3.96740600	-18.90317000
4.44365398	3.96740600	-18.90317000
4.44865398	3.96740600	-19.37315000
4.45365398	3.96740600	-20.30091000
4.45865398	3.96740600	-20.74648000
4.46365398	3.96740600	-20.65493000
4.46865398	3.96740600	-20.63051000
4.47365398	3.96740600	-20.63051000
4.47865398	3.96740600	-20.63051000
4.48365398	3.96740600	-20.63051000
4.48865398	3.96740600	-20.63051000
4.49365398	3.96740600	-20.63051000
4.49865398	3.96740600	-20.63051000
4.50365398	3.96740600	-20.63051000
4.50865398	3.96740600	-20.63051000
4.51365398	3.96740600	-20.63051000
4.51865398	4.02844300	-20.63051000
4.52365398	4.25733200	-20.63051000
4.52865398	3.08236900	-20.65493000
4.53365398	0.53407390	-20.74648000
4.53865398	0.53407390	-20.27650000
4.54365398	3.08236900	-19.25718000
4.54865398	4.25733200	-19.25718000
4.55365398	4.02844300	-20.27650000
4.55865398	3.96740600	-20.74648000
4.56365398	3.96740600	-20.65493000
4.56865398	3.96740600	-20.63051000
4.57365398	3.96740600	-20.63051000
4.57865398	3.96740600	-20.63051000
4.58365398	3.96740600	-20.63051000
4.58865398	4.02844300	-20.60610000
4.59365398	4.25733200	-20.51454000
4.59865398	3.08236900	-20.96011000
4.60365398	0.53407390	-21.88787000
4.60865398	0.53407390	-22.35786000
4.61365398	3.08236900	-22.35786000
4.61865398	4.31836900	-21.88787000
4.62365398	4.31836900	-20.96011000
4.62865398	3.14340600	-20.53896000
4.63365398	0.82399970	-20.72207000
4.63865398	-0.28992580	-20.30091000
4.64365398	-0.06103702	-19.37315000
4.64865398	0.00000000	-18.92758000
4.65365398	0.00000000	-19.01913000
4.65865398	0.00000000	-19.01913000
4.66365398	0.00000000	-18.92758000
4.66865398	0.00000000	-19.39757000
4.67365398	0.00000000	-20.41688000
4.67865398	0.00000000	-20.39247000
4.68365398	0.00000000	-19.28160000
4.68865398	0.00000000	-19.28160000
4.69365398	0.00000000	-20.39247000
4.69865398	0.00000000	-20.41688000
4.70365398	0.00000000	-19.39757000
4.70865398	0.00000000	-18.90317000
4.71365398	0.00000000	-18.90317000
4.71865398	0.00000000	-19.37315000
4.72365398	0.00000000	-20.30091000
4.72865398	0.00000000	-20.77090000
4.73365398	0.00000000	-20.77090000
4.73865398	0.00000000	-20.30091000
4.74365398	0.00000000	-19.37315000
4.74865398	0.00000000	-18.92758000
4.75365398	0.00000000	-19.01913000
4.75865398	0.00000000	-19.04355000
4.76365398	0.00000000	-19.04355000
4.76865398	0.00000000	-19.04355000
4.77365398	0.00000000	-19.04355000
4.77865398	0.00000000	-19.04355000
4.78365398	0.00000000	-19.04355000
4.78865398	0.00000000	-19.04355000
4.79365398	0.00000000	-19.04355000
4.79865398	0.00000000	-19.04355000
4.80365398	0.00000000	-19.04355000
4.80865398	0.00000000	-19.04355000
4.81365398	0.00000000	-19.04355000
4.81865398	0.00000000	-19.04355000
4.82365398	0.00000000	-19.04355000
4.82865398	0.00000000	-19.01913000
4.83365398	0.00000000	-18.92758000
4.83865398	0.00000000	-19.34873000
4.84365398	0.00000000	-20.18494000
4.84865398	0.00000000	-21.10050000
4.85365398	0.00000000	-22.02826000
4.85865398	0.00000000	-22.00385000
4.86365398	0.00000000	-20.98453000
4.86865398	0.00000000	-20.51454000
4.87365398	0.00000000	-20.60610000
4.87865398	0.00000000	-20.63051000
4.88365398	0.00000000	-20.63051000
4.88865398	0.00000000	-20.63051000
4.89365398	0.00000000	-20.63051000
4.89865398	0.00000000	-20.63051000
4.90365398	0.00000000	-20.63051000
4.90865398	0.00000000	-20.63051000
4.91365398	0.00000000	-20.63051000
4.91865398	0.00000000	-20.63051000
4.92365398	0.00000000	-20.63051000
4.92865398	0.00000000	-20.63051000
4.93365398	0.00000000	-20.63051000
4.93865398	0.00000000	-20.65493000
4.94365398	0.00000000	-20.74648000
4.94865398	0.00000000	-20.30091000
4.95365398	0.00000000	-19.37315000
4.95865398	0.00000000	-18.90317000
4.96365398	0.00000000	-18.90317000
4.96865398	0.00000000	-19.37315000
4.97365398	0.00000000	-20.30091000
4.97865398	0.00000000	-20.74648000
4.98365398	0.00000000	-20.65493000
4.98865398	0.00000000	-20.63051000
4.99365398	0.00000000	-20.63051000
4.99865398	0.00000000	-20.63051000
5.00365398	0.00000000	-20.63051000
5.00865398	0.00000000	-20.60610000
5.01365398	0.00000000	-20.51454000
5.01865398	0.00000000	-20.96011000
5.02365398	0.00000000	-21.88787000
5.02865398	0.00000000	-22.35786000
5.03365398	0.00000000	-22.35786000
5.03865398	0.06103702	-21.88787000
5.04365398	0.28992580	-20.96011000
5.04865398	-0.88503670	-20.51454000
5.05365398	-3.43333200	-20.60610000
5.05865398	-3.43333200	-20.65493000
5.06365398	-0.88503670	-20.74648000
5.06865398	0.28992580	-20.27650000
5.07365398	0.06103702	-19.25718000
5.07865398	0.00000000	-19.25718000
5.08365398	0.00000000	-20.27650000
5.08865398	0.06103702	-20.74648000
5.09365398	0.28992580	-20.65493000
5.09865398	-0.88503670	-20.63051000
5.10365398	-3.43333200	-20.63051000
5.10865398	-3.43333200	-20.65493000
5.11365398	-0.88503670	-20.74648000
5.11865398	0.35096280	-20.30091000
5.12365398	0.35096280	-19.37315000
5.12865398	-0.82399970	-18.92758000
5.13365398	-3.14340600	-19.01913000
5.13865398	-4.25733200	-19.04355000
5.14365398	-4.02844300	-19.04355000
5.14865398	-4.02844300	-19.01913000
5.15365398	-4.25733200	-18.92758000
5.15865398	-3.08236900	-19.42198000
5.16365398	-0.53407390	-20.53285000
5.16865398	-0.53407390	-20.06287000
5.17365398	-3.08236900	-18.02423000
5.17865398	-4.25733200	-17.57866000
5.18365398	-4.02844300	-18.78109000
5.18865398	-4.02844300	-18.80550000
5.19365398	-4.25733200	-17.69463000
5.19865398	-3.08236900	-17.67022000
5.20365398	-0.53407390	-18.68954000
5.20865398	-0.53407390	-19.15952000
5.21365398	-3.08236900	-19.06796000
5.21865398	-4.31836900	-19.01913000
5.22365398	-4.31836900	-18.92758000
5.22865398	-3.08236900	-19.39757000
5.23365398	-0.53407390	-20.41688000
5.23865398	-0.53407390	-20.39247000
5.24365398	-3.08236900	-19.28160000
5.24865398	-4.25733200	-19.25718000
5.25365398	-4.02844300	-20.27650000
5.25865398	-3.96740600	-20.72207000
5.26365398	-3.96740600	-20.53896000
5.26865398	-3.96740600	-20.98453000
5.27365398	-3.96740600	-22.00385000
5.27865398	-3.96740600	-22.00385000
5.28365398	-3.96740600	-20.98453000
5.28865398	-3.96740600	-20.49013000
5.29365398	-3.96740600	-20.49013000
5.29865398	-3.96740600	-20.98453000
5.30365398	-3.96740600	-22.00385000
5.30865398	-3.96740600	-22.00385000
5.31365398	-3.96740600	-20.98453000
5.31865398	-3.96740600	-20.51454000
5.32365398	-3.96740600	-20.60610000
5.32865398	-3.96740600	-20.63051000
5.33365398	-3.96740600	-20.63051000
5.33865398	-3.96740600	-20.65493000
5.34365398	-3.96740600	-20.74648000
5.34865398	-3.96740600	-20.27650000
5.35365398	-3.96740600	-19.25718000
5.35865398	-3.96740600	-19.28160000
5.36365398	-3.96740600	-20.39247000
5.36865398	-3.96740600	-20.41688000
5.37365398	-3.96740600	-19.39757000
5.37865398	-3.96740600	-18.92758000
5.38365398	-3.96740600	-19.01913000
5.38865398	-3.96740600	-19.04355000
5.39365398	-3.96740600	-19.04355000
5.39865398	-3.96740600	-19.04355000
5.40365398	-3.96740600	-19.04355000
5.40865398	-3.96740600	-19.04355000
5.41365398	-3.96740600	-19.04355000
5.41865398	-3.96740600	-19.01913000
5.42365398	-3.96740600	-18.92758000
5.42865398	-3.96740600	-19.37315000
5.43365398	-3.96740600	-20.30091000
5.43865398	-3.96740600	-20.77090000
5.44365398	-3.96740600	-20.77090000
5.44865398	-3.96740600	-20.30091000
5.45365398	-3.96740600	-19.37315000
5.45865398	-3.96740600	-18.92758000
5.46365398	-3.96740600	-19.01913000
5.46865398	-3.96740600	-19.04355000
5.47365398	-3.96740600	-19.04355000
5.47865398	-3.96740600	-19.04355000
5.48365398	-3.96740600	-19.04355000
5.48865398	-3.96740600	-19.01913000
5.49365398	-3.96740600	-18.92758000
5.49865398	-3.96740600	-19.37315000
5.50365398	-3.96740600	-20.30091000
5.50865398	-3.96740600	-20.74648000
5.51365398	-3.96740600	-20.65493000
5.51865398	-3.96740600	-20.63051000
5.52365398	-3.96740600	-20.63051000
5.52865398	-3.96740600	-20.63051000
5.53365398	-3.96740600	-20.63051000
5.53865398	-3.96740600	-20.60610000
5.54365398	-3.96740600	-20.51454000
5.54865398	-3.96740600	-20.93570000
5.55365398	-3.96740600	-21.77190000
5.55865398	-3.96740600	-22.68746000
5.56365398	-3.96740600	-23.61522000
5.56865398	-3.96740600	-23.61522000
5.57365398	-3.96740600	-22.68746000
5.57865398	-3.96740600	-21.74749000
5.58365398	-3.96740600	-20.81973000
5.58865398	-3.96740600	-20.84414000
5.59365398	-3.96740600	-21.86346000
5.59865398	-3.96740600	-22.33344000
5.60365398	-3.96740600	-22.24189000
5.60865398	-3.96740600	-22.21748000
5.61365398	-3.96740600	-22.21748000
5.61865398	-3.96740600	-22.21748000
5.62365398	-3.96740600	-22.21748000
5.62865398	-3.96740600	-22.24189000
5.63365398	-3.96740600	-22.33344000
5.63865398	-3.96740600	-21.88787000
5.64365398	-3.96740600	-20.96011000
5.64865398	-3.90636900	-20.51454000
5.65365398	-3.67748000	-20.60610000
5.65865398	-4.85244300	-20.63051000
5.66365398	-7.40073800	-20.63051000
5.66865398	-7.40073800	-20.63051000
5.67365398	-4.85244300	-20.63051000
5.67865398	-3.67748000	-20.63051000
5.68365398	-3.90636900	-20.63051000
5.68865398	-3.96740600	-20.63051000
5.69365398	-3.96740600	-20.63051000
5.69865398	-3.90636900	-20.65493000
5.70365398	-3.67748000	-20.74648000
5.70865398	-4.85244300	-20.32533000
5.71365398	-7.40073800	-19.48912000
5.71865398	-7.40073800	-18.57356000
5.72365398	-4.85244300	-17.64580000
5.72865398	-3.67748000	-17.67022000
5.73365398	-3.90636900	-18.68954000
5.73865398	-3.96740600	-19.18394000
5.74365398	-3.96740600	-19.18394000
5.74865398	-3.96740600	-18.68954000
5.75365398	-3.96740600	-17.67022000
5.75865398	-3.96740600	-17.69463000
5.76365397	-3.96740600	-18.80550000
5.76865397	-3.96740600	-18.82992000
5.77365397	-3.96740600	-17.81060000
5.77865397	-3.90636900	-17.34062000
5.78365397	-3.67748000	-17.43217000
5.78865397	-4.79140600	-17.45659000
5.79365397	-7.11081200	-17.45659000
5.79865397	-8.28577500	-17.45659000
5.80365397	-8.28577500	-17.45659000
5.80865397	-7.04977500	-17.43217000
5.81365397	-4.50148000	-17.34062000
5.81865397	-4.56251700	-17.78619000
5.82365397	-7.33970100	-18.71395000
5.82865397	-7.40073800	-19.15952000
5.83365397	-4.85244300	-19.06796000
5.83865397	-3.61644300	-19.04355000
5.84365397	-3.61644300	-19.04355000
5.84865397	-4.79140600	-19.01913000
5.85365397	-7.11081200	-18.92758000
5.85865397	-8.22473800	-19.34873000
5.86365397	-7.99584900	-20.18494000
5.86865397	-7.93481200	-21.07608000
5.87365397	-7.93481200	-21.91229000
5.87865397	-7.93481200	-22.35786000
5.88365397	-7.93481200	-22.35786000
5.88865397	-7.93481200	-21.88787000
5.89365397	-7.93481200	-20.96011000
5.89865397	-7.93481200	-20.49013000
5.90365397	-7.93481200	-20.49013000
5.90865397	-7.93481200	-21.00894000
5.91365397	-7.93481200	-22.11982000
5.91865397	-7.93481200	-21.64983000
5.92365397	-7.93481200	-19.61119000
5.92865397	-7.93481200	-19.16562000
5.93365397	-7.93481200	-20.36805000
5.93865397	-7.93481200	-20.39247000
5.94365397	-7.93481200	-19.28160000
5.94865397	-7.93481200	-19.28160000
5.95365397	-7.93481200	-20.39247000
5.95865397	-7.93481200	-20.41688000
5.96365397	-7.93481200	-19.39757000
5.96865397	-7.93481200	-18.92758000
5.97365397	-7.93481200	-19.01913000
5.97865397	-7.99584900	-19.01913000
5.98365397	-8.22473800	-18.92758000
5.98865397	-7.04977500	-19.39757000
5.99365397	-4.50148000	-20.41688000
5.99865397	-4.50148000	-20.41688000
6.00365397	-7.04977500	-19.39757000
6.00865397	-8.22473800	-18.92758000
6.01365397	-7.99584900	-19.01913000
6.01865397	-7.93481200	-19.04355000
6.02365397	-7.93481200	-19.04355000
6.02865397	-7.93481200	-19.01913000
6.03365397	-7.93481200	-18.92758000
6.03865397	-7.93481200	-19.39757000
6.04365397	-7.93481200	-20.41688000
6.04865397	-7.93481200	-20.41688000
6.05365397	-7.93481200	-19.39757000
6.05865397	-7.93481200	-18.92758000
6.06365397	-7.93481200	-19.01913000
6.06865397	-7.93481200	-19.04355000
6.07365397	-7.93481200	-19.04355000
6.07865397	-7.93481200	-19.06796000
6.08365397	-7.93481200	-19.15952000
6.08865397	-7.93481200	-18.66512000
6.09365397	-7.93481200	-17.55425000
6.09865397	-7.93481200	-18.02423000
6.10365397	-7.93481200	-20.06287000
6.10865397	-7.93481200	-20.53285000
6.11365397	-7.93481200	-19.42198000
6.11865397	-7.93481200	-18.95199000
6.12365397	-7.93481200	-19.13511000
6.12865397	-7.93481200	-18.68954000
6.13365397	-7.93481200	-17.67022000
6.13865397	-7.93481200	-17.67022000
6.14365397	-7.93481200	-18.68954000
6.14865397	-7.93481200	-19.15952000
6.15365397	-7.93481200	-19.06796000
6.15865397	-7.93481200	-19.04355000
6.16365397	-7.93481200	-19.04355000
6.16865397	-7.93481200	-19.01913000
6.17365397	-7.93481200	-18.92758000
6.17865397	-7.93481200	-19.39757000
6.18365397	-7.93481200	-20.41688000
6.18865397	-7.93481200	-20.39247000
6.19365397	-7.93481200	-19.28160000
6.19865397	-7.93481200	-19.25718000
6.20365397	-7.93481200	-20.27650000
6.20865397	-7.93481200	-20.74648000
6.21365397	-7.93481200	-20.65493000
6.21865397	-7.93481200	-20.63051000
6.22365397	-7.93481200	-20.63051000
6.22865397	-7.93481200	-20.63051000
6.23365397	-7.93481200	-20.63051000
6.23865397	-7.93481200	-20.63051000
6.24365397	-7.93481200	-20.63051000
6.24865397	-7.93481200	-20.63051000
6.25365397	-7.93481200	-20.63051000
6.25865397	-7.93481200	-20.63051000
6.26365397	-7.93481200	-20.63051000
6.26865397	-7.93481200	-20.63051000
6.27365397	-7.93481200	-20.63051000
6.27865397	-7.93481200	-20.65493000
6.28365397	-7.93481200	-20.74648000
6.28865397	-7.93481200	-20.27650000
6.29365397	-7.93481200	-19.25718000
6.29865397	-7.93481200	-19.25718000
6.30365397	-7.93481200	-20.27650000
6.30865397	-7.93481200	-20.74648000
6.31365397	-7.93481200	-20.65493000
6.31865397	-7.93481200	-20.63051000
6.32365397	-7.93481200	-20.63051000
6.32865397	-7.93481200	-20.60610000
6.33365397	-7.93481200	-20.51454000
6.33865397	-7.93481200	-20.96011000
6.34365397	-7.93481200	-21.88787000
6.34865397	-7.93481200	-22.35786000
6.35365397	-7.93481200	-22.35786000
6.35865397	-7.93481200	-21.88787000
6.36365397	-7.93481200	-20.96011000
6.36865397	-7.93481200	-20.51454000
6.37365397	-7.93481200	-20.60610000
6.37865397	-7.93481200	-20.63051000
6.38365397	-7.93481200	-20.63051000
6.38865397	-7.93481200	-20.63051000
6.39365397	-7.93481200	-20.63051000
6.39865397	-7.93481200	-20.63051000
6.40365397	-7.93481200	-20.63051000
6.40865397	-7.93481200	-20.63051000
6.41365397	-7.93481200	-20.63051000
6.41865397	-7.93481200	-20.60610000
6.42365397	-7.93481200	-20.51454000
6.42865397	-7.93481200	-20.98453000
6.43365397	-7.93481200	-22.00385000
6.43865397	-7.93481200	-21.97943000
6.44365397	-7.93481200	-20.86856000
6.44865397	-7.93481200	-20.86856000
6.45365397	-7.93481200	-21.97943000
6.45865397	-7.93481200	-21.97943000
6.46365397	-7.93481200	-20.86856000
6.46865397	-7.93481200	-20.86856000
6.47365397	-7.93481200	-21.97943000
6.47865397	-7.93481200	-22.00385000
6.48365397	-7.93481200	-20.98453000
6.48865397	-7.93481200	-20.49013000
6.49365397	-7.93481200	-20.49013000
6.49865397	-7.93481200	-20.96011000
6.50365397	-7.93481200	-21.88787000
6.50865397	-7.93481200	-22.35786000
6.51365397	-7.93481200	-22.35786000
6.51865397	-7.93481200	-21.91229000
6.52365397	-7.93481200	-21.07608000
6.52865397	-7.93481200	-20.18494000
6.53365397	-7.93481200	-19.34873000
6.53865397	-7.93481200	-18.90317000
6.54365397	-7.93481200	-18.90317000
6.54865397	-7.93481200	-19.39757000
6.55365397	-7.93481200	-20.41688000
6.55865397	-7.93481200	-20.41688000
6.56365397	-7.93481200	-19.39757000
6.56865397	-7.93481200	-18.92758000
6.57365397	-7.93481200	-19.01913000
6.57865397	-7.93481200	-19.01913000
6.58365397	-7.93481200	-18.92758000
6.58865397	-7.93481200	-19.37315000
6.59365397	-7.93481200	-20.30091000
6.59865397	-7.93481200	-20.74648000
6.60365397	-7.93481200	-20.65493000
6.60865397	-7.93481200	-20.63051000
6.61365397	-7.93481200	-20.63051000
6.61865397	-7.87377500	-20.60610000
6.62365397	-7.64488600	-20.51454000
6.62865397	-8.81984900	-20.98453000
6.63365397	-11.36814000	-22.00385000
6.63865397	-11.36814000	-22.00385000
6.64365397	-8.81984900	-20.98453000
6.64865397	-7.64488600	-20.51454000
6.65365397	-7.87377500	-20.60610000
6.65865397	-7.93481200	-20.63051000
6.66365397	-7.93481200	-20.63051000
6.66865397	-7.93481200	-20.65493000
6.67365397	-7.93481200	-20.74648000
6.67865397	-7.93481200	-20.27650000
6.68365397	-7.93481200	-19.25718000
6.68865397	-7.87377500	-19.28160000
6.69365397	-7.64488600	-20.39247000
6.69865397	-8.81984900	-20.41688000
6.70365397	-11.36814000	-19.39757000
6.70865397	-11.36814000	-18.92758000
6.71365397	-8.81984900	-19.01913000
6.71865397	-7.64488600	-19.04355000
6.72365397	-7.87377500	-19.04355000
6.72865397	-7.87377500	-19.01913000
6.73365397	-7.64488600	-18.92758000
6.73865397	-8.81984900	-19.37315000
6.74365397	-11.36814000	-20.30091000
6.74865397	-11.36814000	-20.74648000
6.75365397	-8.81984900	-20.65493000
6.75865397	-7.64488600	-20.65493000
6.76365397	-7.87377500	-20.74648000
6.76865397	-7.93481200	-20.30091000
6.77365397	-7.93481200	-19.37315000
6.77865397	-7.93481200	-18.90317000
6.78365397	-7.93481200	-18.90317000
6.78865397	-7.93481200	-19.37315000
6.79365397	-7.93481200	-20.30091000
6.79865397	-7.93481200	-20.77090000
6.80365397	-7.93481200	-20.77090000
6.80865397	-7.93481200	-20.30091000
6.81365397	-7.93481200	-19.37315000
6.81865397	-7.93481200	-18.92758000
6.82365397	-7.93481200	-19.01913000
6.82865397	-7.93481200	-19.04355000
6.83365397	-7.93481200	-19.04355000
6.83865397	-7.93481200	-19.04355000
6.84365397	-7.93481200	-19.04355000
6.84865397	-7.93481200	-19.04355000
6.85365397	-7.93481200	-19.04355000
6.85865397	-7.87377500	-19.01913000
6.86365397	-7.64488600	-18.92758000
6.86865397	-8.81984900	-19.37315000
6.87365397	-11.36814000	-20.30091000
6.87865397	-11.36814000	-20.77090000
6.88365397	-8.81984900	-20.77090000
6.88865397	-7.64488600	-20.27650000
6.89365397	-7.87377500	-19.25718000
6.89865397	-7.87377500	-19.28160000
6.90365397	-7.64488600	-20.39247000
6.90865397	-8.81984900	-20.39247000
6.91365397	-11.36814000	-19.28160000
6.91865397	-11.30711000	-19.25718000
6.92365397	-8.52992300	-20.27650000
6.92865397	-8.52992300	-20.74648000
6.93365397	-11.30711000	-20.65493000
6.93865397	-11.30711000	-20.63051000
6.94365397	-8.52992300	-20.63051000
6.94865397	-8.52992300	-20.65493000
6.95365397	-11.30711000	-20.74648000
6.95865397	-11.30711000	-20.27650000
6.96365397	-8.52992300	-19.25718000
6.96865397	-8.46888600	-19.28160000
6.97365397	-11.01718000	-20.39247000
6.97865397	-12.19214000	-20.39247000
6.98365397	-11.96325000	-19.28160000
6.98865397	-11.90222000	-19.28160000
6.99365397	-11.90222000	-20.39247000
6.99865397	-11.96325000	-20.36805000
7.00365397	-12.19214000	-19.16562000
7.00865397	-11.01718000	-19.56236000
7.01365397	-8.46888600	-21.41789000
7.01865397	-8.46888600	-22.82784000
7.02365397	-11.01718000	-23.75561000
7.02865397	-12.25318000	-23.26121000
7.03365397	-12.25318000	-21.31413000
7.03865397	-11.01718000	-20.34974000
7.04365397	-8.46888600	-20.34974000
7.04865397	-8.46888600	-21.31413000
7.05365397	-11.01718000	-23.26121000
7.05865397	-12.19214000	-23.75561000
7.06365397	-11.96325000	-22.82784000
7.06865397	-11.90222000	-21.44230000
7.07365397	-11.90222000	-19.67834000
7.07865397	-11.96325000	-18.78720000
7.08365397	-12.19214000	-18.87875000
7.08865397	-11.01718000	-19.39757000
7.09365397	-8.46888600	-20.41688000
7.09865397	-8.52992300	-20.41688000
7.10365397	-11.30711000	-19.39757000
7.10865397	-11.30711000	-18.92758000
7.11365397	-8.52992300	-19.01913000
7.11865397	-8.46888600	-19.01913000
7.12365397	-11.01718000	-18.92758000
7.12865397	-12.19214000	-19.37315000
7.13365397	-11.96325000	-20.30091000
7.13865397	-11.90222000	-20.77090000
7.14365397	-11.90222000	-20.77090000
7.14865397	-11.90222000	-20.27650000
7.15365397	-11.90222000	-19.25718000
7.15865397	-11.96325000	-19.28160000
7.16365397	-12.19214000	-20.39247000
7.16865397	-11.07822000	-20.41688000
7.17365397	-8.75881200	-19.39757000
7.17865397	-7.64488600	-18.95199000
7.18365397	-7.87377500	-19.13511000
7.18865397	-7.87377500	-18.71395000
7.19365397	-7.64488600	-17.78619000
7.19865397	-8.75881200	-17.31620000
7.20365397	-11.07822000	-17.31620000
7.20865397	-12.19214000	-17.83502000
7.21365397	-11.96325000	-18.94589000
7.21865397	-11.90222000	-18.50032000
7.22365397	-11.90222000	-16.55324000
7.22865397	-11.90222000	-15.63768000
7.23365397	-11.90222000	-15.82080000
7.23865397	-11.90222000	-15.86962000
7.24365397	-11.90222000	-15.86962000
7.24865397	-11.90222000	-15.91846000
7.25365397	-11.90222000	-16.10157000
7.25865397	-11.90222000	-15.25315000
7.26365397	-11.90222000	-13.59294000
7.26865397	-11.90222000	-11.92053000
7.27365397	-11.90222000	-10.71810000
7.27865397	-11.90222000	-7.75170100
7.28365397	-11.90222000	-3.77819200
7.28865397	-11.90222000	0.50660720
7.29365397	-11.90222000	4.11389500
7.29865397	-11.90222000	8.77101900
7.30365397	-11.90222000	13.30607000
7.30865397	-11.90222000	18.39045000
7.31365397	-11.90222000	22.73018000
7.31865397	-11.90222000	28.26624000
7.32365397	-11.90222000	33.63140000
7.32865397	-11.90222000	39.14304000
7.33365397	-11.90222000	43.39122000
7.33865397	-11.90222000	48.92727000
7.34365397	-11.90222000	54.38398000
7.34865397	-11.90222000	59.47447000
7.35365397	-11.90222000	62.88644000
7.35865397	-11.90222000	67.54967000
7.36365397	-11.90222000	72.26782000
7.36865397	-11.90222000	76.55263000
7.37365397	-11.90222000	79.41527000
7.37865397	-11.90222000	82.36336000
7.38365397	-11.90222000	84.58511000
7.38865397	-11.90222000	86.67867000
7.39365397	-11.90222000	88.06421000
7.39865397	-11.90222000	89.76103000
7.40365397	-11.90222000	91.32969000
7.40865396	-11.90222000	92.62367000
7.41365396	-11.90222000	93.36832000
7.41865396	-11.90222000	93.76507000
7.42365396	-11.90222000	93.67352000
7.42865396	-11.90222000	93.64910000
7.43365396	-11.90222000	93.64910000
7.43865396	-11.90222000	93.74675000
7.44365396	-11.90222000	94.11908000
7.44865396	-11.90222000	92.34901000
7.45365396	-11.90222000	88.74172000
7.45865396	-11.90222000	86.57491000
7.46365396	-11.90222000	86.30024000
7.46865396	-11.90222000	84.65224000
7.47365396	-11.90222000	82.14973000
7.47865396	-11.90222000	80.03174000
7.48365396	-11.90222000	78.82931000
7.48865396	-11.90222000	76.29017000
7.49365396	-11.90222000	73.04910000
7.49865396	-11.90222000	70.01556000
7.50365396	-11.90222000	67.79382000
7.50865396	-11.90222000	65.72466000
7.51365396	-11.90222000	64.43067000
7.51865396	-11.90222000	62.33711000
7.52365396	-11.90222000	60.02380000
7.52865396	-11.90222000	57.46025000
7.53365396	-11.90222000	55.23240000
7.53865396	-11.90222000	52.69326000
7.54365396	-11.90222000	50.47151000
7.54865396	-11.90222000	47.90796000
7.55365396	-11.90222000	45.59465000
7.55865396	-11.90222000	43.45225000
7.56365396	-11.90222000	41.97515000
7.56865396	-11.90222000	40.77273000
7.57365396	-11.90222000	40.31495000
7.57865396	-11.90222000	38.61812000
7.58365396	-11.90222000	36.12171000
7.58865396	-11.90222000	33.93048000
7.59365396	-11.90222000	32.45338000
7.59865396	-11.90222000	31.22654000
7.60365396	-11.90222000	30.67720000
7.60865396	-11.90222000	29.45036000
7.61365396	-11.90222000	27.96716000
7.61865396	-11.90222000	25.77593000
7.62365396	-11.90222000	23.27952000
7.62865396	-11.90222000	21.58269000
7.63365396	-11.90222000	21.12491000
7.63865396	-11.90222000	19.87365000
7.64365396	-11.90222000	18.21345000
7.64865396	-11.90222000	16.91336000
7.65365396	-11.90222000	16.27247000
7.65865396	-11.90222000	15.46678000
7.66365396	-11.90222000	14.82589000
7.66865396	-11.90222000	13.50749000
7.67365396	-11.90222000	11.74352000
7.67865396	-11.90222000	10.90121000
7.68365396	-11.90222000	11.17588000
7.68865396	-11.90222000	10.80355000
7.69365396	-11.90222000	9.96734500
7.69865396	-11.90222000	9.07620400
7.70365396	-11.90222000	8.23999700
7.70865396	-11.90222000	7.86767200
7.71365396	-11.90222000	8.14233900
7.71865396	-11.90222000	7.27561200
7.72365396	-11.90222000	5.42008700
7.72865396	-11.90222000	4.55336100
7.73365396	-11.90222000	4.82802800
7.73865396	-11.90222000	4.43128700
7.74365396	-11.90222000	3.50352500
7.74865396	-11.90222000	3.05795500
7.75365396	-11.90222000	3.14951000
7.75865396	-11.90222000	3.17392500
7.76365396	-11.90222000	3.17392500
7.76865396	-11.90222000	3.19834000
7.77365396	-11.90222000	3.28989500
7.77865396	-11.90222000	2.86874000
7.78365396	-11.90222000	2.03253300
7.78865396	-11.90222000	1.14139200
7.79365396	-11.90222000	0.30518510
7.79865396	-11.90222000	-0.09155553
7.80365396	-11.90222000	0.09155553
7.80865396	-11.90222000	-0.30518510
7.81365396	-11.90222000	-1.14139200
7.81865396	-11.90222000	-2.03253300
7.82365396	-11.90222000	-2.86874000
7.82865396	-11.90222000	-3.26548100
7.83365396	-11.90222000	-3.08237000
7.83865396	-11.90222000	-3.47911000
7.84365396	-11.90222000	-4.31531700
7.84865396	-11.90222000	-5.20645800
7.85365396	-11.90222000	-6.04266500
7.85865396	-11.90222000	-6.46382000
7.86365396	-11.90222000	-6.37226500
7.86865396	-11.90222000	-6.37226500
7.87365396	-11.90222000	-6.46382000
7.87865396	-11.90222000	-5.99383500
7.88365396	-11.90222000	-4.97451700
7.88865396	-11.90222000	-4.97451700
7.89365396	-11.90222000	-5.99383500
7.89865396	-11.90222000	-6.43940500
7.90365396	-11.90222000	-6.25629500
7.90865396	-11.90222000	-6.70186400
7.91365396	-11.90222000	-7.72118300
7.91865396	-11.90222000	-7.69676800
7.92365396	-11.90222000	-6.58589400
7.92865396	-11.90222000	-6.56148000
7.93365396	-11.90222000	-7.58079800
7.93865396	-11.90222000	-8.05078300
7.94365396	-11.90222000	-7.95922800
7.94865396	-11.90222000	-7.91039800
7.95365396	-11.90222000	-7.81884200
7.95865396	-11.90222000	-8.28882700
7.96365396	-11.90222000	-9.30814500
7.96865396	-11.90222000	-9.28373100
7.97365396	-11.90222000	-8.17285700
7.97865396	-11.90222000	-8.14844100
7.98365396	-11.90222000	-9.16776000
7.98865396	-11.90222000	-9.66216000
7.99365396	-11.90222000	-9.66216000
7.99865396	-11.90222000	-9.19217500
8.00365396	-11.90222000	-8.26441300
8.00865396	-11.90222000	-7.81884200
8.01365396	-11.90222000	-7.91039800
8.01865396	-11.90222000	-7.93481200
8.02365396	-11.90222000	-7.93481200
8.02865396	-11.90222000	-7.91039800
8.03365396	-11.90222000	-7.81884200
8.03865396	-11.90222000	-8.26441300
8.04365396	-11.90222000	-9.19217500
8.04865396	-11.90222000	-9.63774600
8.05365396	-11.90222000	-9.54619000
8.05865396	-11.90222000	-9.52177400
8.06365396	-11.90222000	-9.52177400
8.06865396	-11.90222000	-9.52177400
8.07365396	-11.90222000	-9.52177400
8.07865396	-11.84118000	-9.49735900
8.08365396	-11.61229000	-9.40580500
8.08865396	-12.78725000	-9.85137500
8.09365396	-15.33555000	-10.77914000
8.09865396	-15.33555000	-11.22471000
8.10365396	-12.78725000	-11.13315000
8.10865396	-11.61229000	-11.10874000
8.11365396	-11.84118000	-11.10874000
8.11865396	-11.90222000	-11.13315000
8.12365396	-11.90222000	-11.22471000
8.12865396	-11.90222000	-10.75472000
8.13365396	-11.90222000	-9.73540400
8.13865396	-11.90222000	-9.73540400
8.14365396	-11.90222000	-10.75472000
8.14865396	-11.90222000	-11.22471000
8.15365396	-11.90222000	-11.13315000
8.15865396	-11.84118000	-11.10874000
8.16365396	-11.61229000	-11.10874000
8.16865396	-12.78725000	-11.10874000
8.17365396	-15.33555000	-11.10874000
8.17865396	-15.33555000	-11.10874000
8.18365396	-12.78725000	-11.10874000
8.18865396	-11.61229000	-11.10874000
8.19365396	-11.84118000	-11.10874000
8.19865396	-11.84118000	-11.10874000
8.20365396	-11.61229000	-11.10874000
8.20865396	-12.78725000	-11.08432000
8.21365396	-15.33555000	-10.99277000
8.21865396	-15.33555000	-11.43834000
8.22365396	-12.78725000	-12.36610000
8.22865396	-11.61229000	-12.81167000
8.23365396	-11.84118000	-12.72011000
8.23865396	-11.90222000	-12.67128000
8.24365396	-11.90222000	-12.57973000
8.24865396	-11.90222000	-13.04971000
8.25365396	-11.90222000	-14.06903000
8.25865396	-11.90222000	-14.06903000
8.26365396	-11.90222000	-13.04971000
8.26865396	-11.90222000	-12.60414000
8.27365396	-11.90222000	-12.78726000
8.27865396	-11.90222000	-12.34169000
8.28365396	-11.90222000	-11.32237000
8.28865396	-11.90222000	-11.29795000
8.29365396	-11.90222000	-12.22571000
8.29865396	-11.90222000	-13.16568000
8.30365396	-11.90222000	-14.09345000
8.30865396	-11.90222000	-14.06903000
8.31365396	-11.90222000	-13.04971000
8.31865396	-11.84118000	-12.55531000
8.32365396	-11.61229000	-12.55531000
8.32865396	-12.78725000	-13.02530000
8.33365396	-15.33555000	-13.95306000
8.33865396	-15.33555000	-14.39863000
8.34365396	-12.78725000	-14.30708000
8.34865396	-11.55125000	-14.28266000
8.35365396	-11.55125000	-14.28266000
8.35865396	-12.72622000	-14.28266000
8.36365396	-15.04562000	-14.28266000
8.36865396	-16.22059000	-14.28266000
8.37365396	-16.22059000	-14.28266000
8.37865396	-15.04562000	-14.28266000
8.38365396	-12.72622000	-14.28266000
8.38865396	-11.61229000	-14.28266000
8.39365396	-11.84118000	-14.28266000
8.39865396	-11.90222000	-14.28266000
8.40365396	-11.90222000	-14.28266000
8.40865396	-11.90222000	-14.30708000
8.41365396	-11.90222000	-14.39863000
8.41865396	-11.84118000	-13.95306000
8.42365396	-11.61229000	-13.02530000
8.42865396	-12.72622000	-12.57973000
8.43365396	-15.04562000	-12.67128000
8.43865396	-16.15955000	-12.67128000
8.44365396	-15.93066000	-12.57973000
8.44865396	-15.93066000	-13.04971000
8.45365396	-16.15955000	-14.06903000
8.45865396	-15.04562000	-14.04462000
8.46365396	-12.72622000	-12.93374000
8.46865396	-11.55125000	-12.93374000
8.47365396	-11.55125000	-14.04462000
8.47865396	-12.78725000	-14.04462000
8.48365396	-15.33555000	-12.93374000
8.48865396	-15.33555000	-12.90933000
8.49365396	-12.78725000	-13.92865000
8.49865396	-11.55125000	-14.39863000
8.50365396	-11.55125000	-14.30708000
8.50865396	-12.78725000	-14.28266000
8.51365396	-15.33555000	-14.28266000
8.51865396	-15.27451000	-14.28266000
8.52365396	-12.49733000	-14.28266000
8.52865396	-12.49733000	-14.28266000
8.53365396	-15.27451000	-14.28266000
8.53865396	-15.33555000	-14.28266000
8.54365396	-12.78725000	-14.28266000
8.54865396	-11.61229000	-14.28266000
8.55365396	-11.84118000	-14.28266000
8.55865396	-11.90222000	-14.30708000
8.56365396	-11.90222000	-14.39863000
8.56865396	-11.90222000	-13.92865000
8.57365396	-11.90222000	-12.90933000
8.57865396	-11.90222000	-12.90933000
8.58365396	-11.90222000	-13.92865000
8.58865396	-11.90222000	-14.39863000
8.59365396	-11.90222000	-14.30708000
8.59865396	-11.84118000	-14.25825000
8.60365396	-11.61229000	-14.16669000
8.60865396	-12.78725000	-14.63668000
8.61365396	-15.33555000	-15.65600000
8.61865396	-15.33555000	-15.63158000
8.62365396	-12.78725000	-14.52071000
8.62865396	-11.55125000	-14.49629000
8.63365396	-11.55125000	-15.51561000
8.63865396	-12.72622000	-16.01001000
8.64365396	-15.04562000	-16.01001000
8.64865396	-16.15955000	-15.54002000
8.65365396	-15.93066000	-14.61226000
8.65865396	-15.93066000	-14.14228000
8.66365396	-16.15955000	-14.14228000
8.66865396	-14.98459000	-14.61226000
8.67365396	-12.43629000	-15.54002000
8.67865396	-12.49733000	-15.96118000
8.68365396	-15.27451000	-15.77807000
8.68865396	-15.33555000	-16.22364000
8.69365396	-12.78725000	-17.24296000
8.69865396	-11.61229000	-17.21854000
8.70365396	-11.84118000	-16.10767000
8.70865396	-11.84118000	-16.08325000
8.71365396	-11.61229000	-17.10257000
8.71865396	-12.72622000	-17.59697000
8.72365396	-15.04562000	-17.59697000
8.72865396	-16.15955000	-17.10257000
8.73365396	-15.93066000	-16.08325000
8.73865396	-15.86962000	-16.08325000
8.74365396	-15.86962000	-17.10257000
8.74865396	-15.93066000	-17.57256000
8.75365396	-16.15955000	-17.48100000
8.75865396	-15.04562000	-17.45659000
8.76365396	-12.72622000	-17.45659000
8.76865396	-11.55125000	-17.48100000
8.77365396	-11.55125000	-17.57256000
8.77865396	-12.72622000	-17.12699000
8.78365396	-15.04562000	-16.19922000
8.78865396	-16.15955000	-15.72924000
8.79365396	-15.93066000	-15.72924000
8.79865396	-15.93066000	-16.19922000
8.80365396	-16.15955000	-17.12699000
8.80865396	-15.04562000	-17.59697000
8.81365396	-12.72622000	-17.59697000
8.81865396	-11.55125000	-17.12699000
8.82365396	-11.55125000	-16.19922000
8.82865396	-12.72622000	-15.75365000
8.83365396	-15.04562000	-15.84521000
8.83865396	-16.22059000	-15.86962000
8.84365396	-16.22059000	-15.86962000
8.84865396	-15.04562000	-15.86962000
8.85365396	-12.72622000	-15.86962000
8.85865396	-11.61229000	-15.84521000
8.86365396	-11.84118000	-15.75365000
8.86865396	-11.84118000	-16.19922000
8.87365396	-11.61229000	-17.12699000
8.87865396	-12.72622000	-17.59697000
8.88365396	-15.04562000	-17.59697000
8.88865396	-16.15955000	-17.12699000
8.89365396	-15.93066000	-16.19922000
8.89865396	-15.86962000	-15.75365000
8.90365396	-15.86962000	-15.84521000
8.90865396	-15.93066000	-15.86962000
8.91365396	-16.15955000	-15.86962000
8.91865396	-14.98459000	-15.86962000
8.92365396	-12.43629000	-15.86962000
8.92865396	-12.43629000	-15.86962000
8.93365396	-14.98459000	-15.86962000
8.93865396	-16.15955000	-15.86962000
8.94365396	-15.93066000	-15.86962000
8.94865396	-15.86962000	-15.86962000
8.95365396	-15.86962000	-15.86962000
8.95865396	-15.86962000	-15.84521000
8.96365396	-15.86962000	-15.75365000
8.96865396	-15.86962000	-16.22364000
8.97365396	-15.86962000	-17.24296000
8.97865396	-15.86962000	-17.21854000
8.98365396	-15.86962000	-16.10767000
8.98865396	-15.93066000	-16.10767000
8.99365396	-16.15955000	-17.21854000
8.99865396	-14.98459000	-17.21854000
9.00365396	-12.43629000	-16.10767000
9.00865396	-12.43629000	-16.08325000
9.01365396	-14.98459000	-17.10257000
9.01865396	-16.22059000	-17.59697000
9.02365396	-16.22059000	-17.59697000
