Time	Channel A	Channel B
(us)	(mV)	(mV)

-1.00498305	-23.80444000	-27.77184000
-0.99998305	-23.80444000	-27.77184000
-0.99498305	-23.80444000	-27.77184000
-0.98998305	-23.80444000	-27.77184000
-0.98498305	-23.80444000	-27.77184000
-0.97998305	-23.80444000	-27.77184000
-0.97498305	-23.80444000	-27.77184000
-0.96998305	-23.80444000	-27.77184000
-0.96498305	-23.80444000	-27.77184000
-0.95998305	-23.80444000	-27.77184000
-0.95498305	-23.80444000	-27.77184000
-0.94998305	-23.80444000	-27.77184000
-0.94498305	-23.80444000	-27.77184000
-0.93998305	-23.80444000	-27.77184000
-0.93498305	-23.80444000	-27.77184000
-0.92998305	-23.80444000	-27.77184000
-0.92498305	-23.80444000	-27.77184000
-0.91998305	-23.80444000	-27.77184000
-0.91498305	-23.80444000	-27.77184000
-0.90998305	-23.80444000	-27.77184000
-0.90498305	-23.80444000	-27.77184000
-0.89998305	-23.80444000	-27.77184000
-0.89498305	-23.80444000	-27.77184000
-0.88998305	-23.80444000	-27.77184000
-0.88498305	-23.80444000	-27.77184000
-0.87998305	-23.80444000	-27.77184000
-0.87498305	-23.80444000	-27.77184000
-0.86998305	-23.80444000	-27.77184000
-0.86498305	-23.80444000	-27.77184000
-0.85998305	-23.80444000	-27.77184000
-0.85498305	-23.80444000	-27.77184000
-0.84998305	-23.80444000	-27.77184000
-0.84498305	-23.80444000	-27.77184000
-0.83998305	-23.80444000	-27.77184000
-0.83498305	-23.80444000	-27.77184000
-0.82998305	-23.80444000	-27.77184000
-0.82498305	-23.80444000	-27.77184000
-0.81998305	-23.80444000	-27.77184000
-0.81498305	-23.80444000	-27.77184000
-0.80998305	-23.80444000	-27.77184000
-0.80498305	-23.80444000	-27.77184000
-0.79998305	-23.80444000	-27.77184000
-0.79498305	-23.80444000	-27.77184000
-0.78998305	-23.80444000	-27.77184000
-0.78498305	-23.80444000	-27.77184000
-0.77998305	-23.80444000	-27.77184000
-0.77498305	-23.80444000	-27.83288000
-0.76998305	-23.80444000	-28.06177000
-0.76498305	-23.80444000	-26.88680000
-0.75998305	-23.80444000	-24.33851000
-0.75498305	-23.80444000	-24.33851000
-0.74998305	-23.80444000	-26.88680000
-0.74498305	-23.80444000	-28.12280000
-0.73998305	-23.80444000	-28.12280000
-0.73498305	-23.80444000	-26.94784000
-0.72998305	-23.80444000	-24.62844000
-0.72498305	-23.80444000	-23.51451000
-0.71998305	-23.80444000	-23.74340000
-0.71498305	-23.80444000	-23.80444000
-0.70998305	-23.80444000	-23.80444000
-0.70498305	-23.80444000	-23.80444000
-0.69998305	-23.80444000	-23.80444000
-0.69498305	-23.80444000	-23.80444000
-0.68998305	-23.80444000	-23.80444000
-0.68498305	-23.80444000	-23.80444000
-0.67998305	-23.80444000	-23.80444000
-0.67498305	-23.80444000	-23.80444000
-0.66998305	-23.80444000	-23.80444000
-0.66498305	-23.80444000	-23.80444000
-0.65998305	-23.80444000	-23.80444000
-0.65498305	-23.80444000	-23.80444000
-0.64998305	-23.80444000	-23.80444000
-0.64498305	-23.80444000	-23.80444000
-0.63998305	-23.80444000	-23.80444000
-0.63498305	-23.80444000	-23.80444000
-0.62998305	-23.80444000	-23.80444000
-0.62498305	-23.80444000	-23.80444000
-0.61998305	-23.80444000	-23.80444000
-0.61498305	-23.80444000	-23.80444000
-0.60998305	-23.80444000	-23.80444000
-0.60498305	-23.80444000	-23.80444000
-0.59998305	-23.80444000	-23.80444000
-0.59498305	-23.80444000	-23.80444000
-0.58998305	-23.80444000	-23.80444000
-0.58498305	-23.80444000	-23.80444000
-0.57998305	-23.80444000	-23.80444000
-0.57498305	-23.80444000	-23.80444000
-0.56998305	-23.80444000	-23.80444000
-0.56498305	-23.80444000	-23.74340000
-0.55998305	-23.80444000	-23.51451000
-0.55498305	-23.80444000	-24.62844000
-0.54998305	-23.80444000	-26.94784000
-0.54498305	-23.80444000	-28.12280000
-0.53998305	-23.80444000	-28.12280000
-0.53498305	-23.80444000	-26.88680000
-0.52998305	-23.80444000	-24.33851000
-0.52498305	-23.80444000	-24.33851000
-0.51998305	-23.80444000	-26.88680000
-0.51498305	-23.80444000	-28.06177000
-0.50998305	-23.80444000	-27.83288000
-0.50498305	-23.80444000	-27.77184000
-0.49998305	-23.80444000	-27.77184000
-0.49498305	-23.80444000	-27.77184000
-0.48998305	-23.80444000	-27.77184000
-0.48498305	-23.80444000	-27.77184000
-0.47998305	-23.80444000	-27.77184000
-0.47498305	-23.80444000	-27.77184000
-0.46998305	-23.80444000	-27.77184000
-0.46498305	-23.80444000	-27.77184000
-0.45998305	-23.80444000	-27.77184000
-0.45498305	-23.80444000	-27.83288000
-0.44998305	-23.80444000	-28.06177000
-0.44498305	-23.80444000	-26.94784000
-0.43998305	-23.80444000	-24.62844000
-0.43498305	-23.80444000	-23.45347000
-0.42998305	-23.80444000	-23.45347000
-0.42498305	-23.80444000	-24.62844000
-0.41998305	-23.80444000	-26.94784000
-0.41498305	-23.80444000	-28.12280000
-0.40998305	-23.80444000	-28.12280000
-0.40498305	-23.80444000	-26.88680000
-0.39998305	-23.80444000	-24.33851000
-0.39498305	-23.80444000	-24.39955000
-0.38998305	-23.80444000	-27.17673000
-0.38498305	-23.80444000	-27.23777000
-0.37998305	-23.80444000	-24.68947000
-0.37498305	-23.80444000	-23.51451000
-0.36998305	-23.80444000	-23.74340000
-0.36498305	-23.80444000	-23.74340000
-0.35998305	-23.80444000	-23.51451000
-0.35498305	-23.80444000	-24.62844000
-0.34998305	-23.80444000	-26.94784000
-0.34498305	-23.80444000	-28.06177000
-0.33998305	-23.80444000	-27.83288000
-0.33498305	-23.80444000	-27.77184000
-0.32998305	-23.80444000	-27.77184000
-0.32498305	-23.80444000	-27.77184000
-0.31998305	-23.80444000	-27.77184000
-0.31498305	-23.80444000	-27.77184000
-0.30998305	-23.80444000	-27.77184000
-0.30498305	-23.80444000	-27.77184000
-0.29998305	-23.80444000	-27.77184000
-0.29498305	-23.80444000	-27.77184000
-0.28998305	-23.80444000	-27.77184000
-0.28498305	-23.80444000	-27.77184000
-0.27998305	-23.80444000	-27.77184000
-0.27498305	-23.80444000	-27.77184000
-0.26998305	-23.80444000	-27.77184000
-0.26498305	-23.80444000	-27.77184000
-0.25998305	-23.80444000	-27.77184000
-0.25498305	-23.80444000	-27.77184000
-0.24998305	-23.80444000	-27.77184000
-0.24498305	-23.80444000	-27.77184000
-0.23998305	-23.80444000	-27.77184000
-0.23498305	-23.80444000	-27.77184000
-0.22998305	-23.80444000	-27.77184000
-0.22498305	-23.80444000	-27.77184000
-0.21998305	-23.80444000	-27.77184000
-0.21498305	-23.80444000	-27.77184000
-0.20998305	-23.80444000	-27.77184000
-0.20498305	-23.80444000	-27.77184000
-0.19998305	-23.80444000	-27.77184000
-0.19498305	-23.80444000	-27.77184000
-0.18998305	-23.80444000	-27.77184000
-0.18498305	-23.80444000	-27.77184000
-0.17998305	-23.80444000	-27.77184000
-0.17498305	-23.80444000	-27.77184000
-0.16998305	-23.80444000	-27.77184000
-0.16498305	-23.80444000	-27.77184000
-0.15998305	-23.80444000	-27.77184000
-0.15498305	-23.86547000	-27.77184000
-0.14998305	-24.09436000	-27.77184000
-0.14498305	-22.98043000	-27.77184000
-0.13998305	-20.66103000	-27.77184000
-0.13498305	-19.71496000	-27.77184000
-0.12998305	-20.66103000	-27.77184000
-0.12498305	-17.47185000	-27.71080000
-0.11998305	-11.00192000	-27.48192000
-0.11498305	-5.58488700	-28.59584000
-0.10998305	-2.34992500	-30.91525000
-0.10498305	2.88399900	-31.96814000
-0.09998305	8.66725600	-31.51036000
-0.09498305	15.13718000	-32.56325000
-0.08998305	20.92044000	-34.88266000
-0.08498305	26.21540000	-35.99658000
-0.07998305	29.67925000	-35.76769000
-0.07498305	33.79925000	-35.64562000
-0.06998305	37.26310000	-35.41673000
-0.06498305	42.61909000	-36.53065000
-0.05998305	48.63124000	-38.85006000
-0.05498305	53.98724000	-39.96399000
-0.04998305	57.45109000	-39.73510000
-0.04498305	61.57109000	-39.67406000
-0.03998305	65.03493000	-39.67406000
-0.03498305	70.39094000	-39.67406000
-0.02998305	76.41834000	-39.67406000
-0.02498305	81.77434000	-39.67406000
-0.01998305	85.23819000	-39.67406000
-0.01498305	89.41923000	-39.67406000
-0.00998305	93.11196000	-39.67406000
-0.00498305	97.35404000	-39.67406000
0.00001695	101.04680000	-39.67406000
0.00501695	105.22780000	-39.73510000
0.01001695	108.69170000	-39.96399000
0.01501695	114.10870000	-38.85006000
0.02001695	120.34970000	-36.53065000
0.02501695	124.59180000	-35.41673000
0.03001695	125.73630000	-35.64562000
0.03501695	128.80340000	-35.64562000
0.04001695	132.72500000	-35.41673000
0.04501695	137.02810000	-36.53065000
0.05001695	140.73610000	-38.85006000
0.05501695	144.97820000	-39.96399000
0.06001695	148.67090000	-39.73510000
0.06501695	152.97400000	-39.67406000
0.07001695	156.89560000	-39.67406000
0.07501695	160.02380000	-39.67406000
0.08001695	161.39710000	-39.67406000
0.08501695	164.58630000	-39.61302000
0.09001695	168.73680000	-39.38414000
0.09501695	171.98700000	-40.49806000
0.10001695	173.58930000	-42.81747000
0.10501695	175.64930000	-43.99243000
0.11001695	177.51090000	-43.99243000
0.11501695	179.67770000	-42.81747000
0.12001695	181.76820000	-40.49806000
0.12501695	182.76010000	-39.38414000
0.13001695	182.30230000	-39.61302000
0.13501695	183.35520000	-39.67406000
0.14001695	185.67460000	-39.67406000
0.14501695	186.84960000	-39.73510000
0.15001695	186.84960000	-39.96399000
0.15501695	185.73560000	-38.85006000
0.16001695	183.64510000	-36.53065000
0.16501695	181.47830000	-35.41673000
0.17001695	179.61670000	-35.64562000
0.17501695	177.55670000	-35.76769000
0.18001695	175.95450000	-35.99658000
0.18501695	172.70420000	-34.88266000
0.19001695	168.55370000	-32.56325000
0.19501695	165.30350000	-31.44932000
0.20001695	163.70130000	-31.67821000
0.20501695	161.64130000	-31.73925000
0.21001695	159.77960000	-31.73925000
0.21501695	157.67390000	-31.73925000
0.22001695	155.81220000	-31.73925000
0.22501695	153.70650000	-31.73925000
0.23001695	151.84480000	-31.73925000
0.23501695	149.73910000	-31.73925000
0.24001695	147.87740000	-31.73925000
0.24501695	145.77170000	-31.73925000
0.25001695	143.92530000	-31.73925000
0.25501695	141.78900000	-31.73925000
0.26001695	139.94260000	-31.73925000
0.26501695	137.76050000	-31.67821000
0.27001695	135.67000000	-31.44932000
0.27501695	134.67820000	-32.62428000
0.28001695	135.13600000	-35.17258000
0.28501695	134.14410000	-35.11155000
0.29001695	132.05360000	-32.33436000
0.29501695	129.82570000	-32.27332000
0.30001695	127.73520000	-34.82162000
0.30501695	126.74340000	-35.99658000
0.31001695	127.20110000	-35.76769000
0.31501695	126.14820000	-35.70665000
0.32001695	123.82880000	-35.70665000
0.32501695	122.71490000	-35.70665000
0.33001695	122.94380000	-35.70665000
0.33501695	123.00480000	-35.70665000
0.34001695	123.00480000	-35.70665000
0.34501695	123.06590000	-35.70665000
0.35001695	123.29480000	-35.70665000
0.35501695	122.18080000	-35.70665000
0.36001695	119.86140000	-35.70665000
0.36501695	118.74750000	-35.70665000
0.37001695	118.97640000	-35.70665000
0.37501695	119.03740000	-35.76769000
0.38001695	119.03740000	-35.99658000
0.38501695	119.09850000	-34.88266000
0.39001695	119.32740000	-32.56325000
0.39501695	118.15240000	-31.44932000
0.40001695	115.60410000	-31.67821000
0.40501695	115.66510000	-31.73925000
0.41001695	118.44230000	-31.73925000
0.41501695	118.50340000	-31.73925000
0.42001695	115.95510000	-31.73925000
0.42501695	114.78010000	-31.73925000
0.43001695	115.00900000	-31.73925000
0.43501695	115.07000000	-31.73925000
0.44001695	115.07000000	-31.73925000
0.44501695	115.07000000	-31.73925000
0.45001695	115.07000000	-31.73925000
0.45501695	115.13110000	-31.73925000
0.46001695	115.36000000	-31.73925000
0.46501695	114.24600000	-31.73925000
0.47001695	111.92660000	-31.73925000
0.47501695	110.81270000	-31.73925000
0.48001695	111.04160000	-31.73925000
0.48501695	111.10260000	-31.73925000
0.49001695	111.10260000	-31.73925000
0.49501695	111.10260000	-31.73925000
0.50001695	111.10260000	-31.73925000
0.50501695	111.10260000	-31.73925000
0.51001695	111.10260000	-31.73925000
0.51501695	111.10260000	-31.73925000
0.52001695	111.10260000	-31.73925000
0.52501695	111.10260000	-31.73925000
0.53001695	111.10260000	-31.73925000
0.53501695	111.16370000	-31.73925000
0.54001695	111.39250000	-31.73925000
0.54501695	110.27860000	-31.73925000
0.55001695	107.95920000	-31.73925000
0.55501695	106.84530000	-31.80028000
0.56001695	107.07420000	-32.02917000
0.56501695	107.13520000	-30.91525000
0.57001695	107.13520000	-28.59584000
0.57501695	107.19630000	-27.48192000
0.58001695	107.42510000	-27.71080000
0.58501695	106.31120000	-27.77184000
0.59001695	103.99180000	-27.77184000
0.59501695	102.87790000	-27.77184000
0.60001695	103.10680000	-27.77184000
0.60501694	103.16780000	-27.77184000
0.61001694	103.16780000	-27.77184000
0.61501694	103.16780000	-27.77184000
0.62001694	103.16780000	-27.77184000
0.62501694	103.16780000	-27.77184000
0.63001694	103.16780000	-27.77184000
0.63501694	103.22890000	-27.77184000
0.64001694	103.45770000	-27.77184000
0.64501694	102.34380000	-27.77184000
0.65001694	100.02440000	-27.77184000
0.65501694	98.91048000	-27.77184000
0.66001694	99.13937000	-27.77184000
0.66501694	99.20041000	-27.77184000
0.67001694	99.20041000	-27.77184000
0.67501694	99.20041000	-27.71080000
0.68001694	99.20041000	-27.48192000
0.68501694	99.20041000	-28.59584000
0.69001694	99.20041000	-30.91525000
0.69501694	99.20041000	-32.09021000
0.70001694	99.20041000	-32.09021000
0.70501694	99.20041000	-30.85421000
0.71001694	99.20041000	-28.30592000
0.71501694	99.26145000	-28.30592000
0.72001694	99.49034000	-30.85421000
0.72501694	98.37641000	-32.02917000
0.73001694	96.05700000	-31.80028000
0.73501694	94.94308000	-31.80028000
0.74001694	95.17197000	-32.02917000
0.74501694	95.23300000	-30.91525000
0.75001694	95.23300000	-28.59584000
0.75501694	95.23300000	-27.48192000
0.76001694	95.23300000	-27.71080000
0.76501694	95.23300000	-27.77184000
0.77001694	95.23300000	-27.77184000
0.77501694	95.23300000	-27.77184000
0.78001694	95.23300000	-27.77184000
0.78501694	95.29404000	-27.77184000
0.79001694	95.52293000	-27.77184000
0.79501694	94.40900000	-27.77184000
0.80001694	92.08959000	-27.77184000
0.80501694	90.97568000	-27.77184000
0.81001694	91.20457000	-27.77184000
0.81501694	91.26560000	-27.77184000
0.82001694	91.26560000	-27.77184000
0.82501694	91.26560000	-27.77184000
0.83001694	91.26560000	-27.77184000
0.83501694	91.26560000	-27.77184000
0.84001694	91.26560000	-27.77184000
0.84501694	91.32664000	-27.77184000
0.85001694	91.55552000	-27.77184000
0.85501694	90.44160000	-27.77184000
0.86001694	88.12219000	-27.77184000
0.86501694	87.00826000	-27.77184000
0.87001694	87.23715000	-27.77184000
0.87501694	87.29819000	-27.77184000
0.88001694	87.29819000	-27.77184000
0.88501694	87.29819000	-27.77184000
0.89001694	87.29819000	-27.77184000
0.89501694	87.29819000	-27.77184000
0.90001694	87.29819000	-27.77184000
0.90501694	87.29819000	-27.77184000
0.91001694	87.29819000	-27.77184000
0.91501694	87.29819000	-27.77184000
0.92001694	87.29819000	-27.77184000
0.92501694	87.35923000	-27.77184000
0.93001694	87.58812000	-27.77184000
0.93501694	86.47419000	-27.77184000
0.94001694	84.15479000	-27.77184000
0.94501694	83.04086000	-27.77184000
0.95001694	83.26974000	-27.77184000
0.95501694	83.33078000	-27.77184000
0.96001694	83.33078000	-27.77184000
0.96501694	83.33078000	-27.77184000
0.97001694	83.33078000	-27.77184000
0.97501694	83.33078000	-27.77184000
0.98001694	83.33078000	-27.77184000
0.98501694	83.39182000	-27.77184000
0.99001694	83.62070000	-27.77184000
0.99501694	82.50678000	-27.77184000
1.00001694	80.18738000	-27.77184000
1.00501694	79.07346000	-27.77184000
1.01001694	79.30235000	-27.77184000
1.01501694	79.36338000	-27.77184000
1.02001694	79.36338000	-27.77184000
1.02501694	79.36338000	-27.77184000
1.03001694	79.36338000	-27.77184000
1.03501694	79.36338000	-27.77184000
1.04001694	79.36338000	-27.77184000
1.04501694	79.36338000	-27.83288000
1.05001694	79.36338000	-28.06177000
1.05501694	79.36338000	-26.88680000
1.06001694	79.36338000	-24.33851000
1.06501694	79.36338000	-24.33851000
1.07001694	79.36338000	-26.88680000
1.07501694	79.36338000	-28.06177000
1.08001694	79.36338000	-27.83288000
1.08501694	79.42442000	-27.77184000
1.09001694	79.65331000	-27.77184000
1.09501694	78.53938000	-27.77184000
1.10001694	76.21997000	-27.77184000
1.10501694	75.10605000	-27.77184000
1.11001694	75.33494000	-27.77184000
1.11501694	75.39597000	-27.77184000
1.12001694	75.39597000	-27.77184000
1.12501694	75.45701000	-27.77184000
1.13001694	75.68590000	-27.77184000
1.13501694	74.51093000	-27.77184000
1.14001694	71.96265000	-27.77184000
1.14501694	72.02368000	-27.77184000
1.15001694	74.80086000	-27.77184000
1.15501694	74.86190000	-27.77184000
1.16001694	72.31360000	-27.77184000
1.16501694	71.13864000	-27.77184000
1.17001694	71.36753000	-27.77184000
1.17501694	71.42857000	-27.77184000
1.18001694	71.42857000	-27.77184000
1.18501694	71.42857000	-27.77184000
1.19001694	71.42857000	-27.77184000
1.19501694	71.42857000	-27.77184000
1.20001694	71.42857000	-27.77184000
1.20501694	71.42857000	-27.77184000
1.21001694	71.42857000	-27.77184000
1.21501694	71.42857000	-27.77184000
1.22001694	71.42857000	-27.77184000
1.22501694	71.48961000	-27.83288000
1.23001694	71.71850000	-28.06177000
1.23501694	70.60457000	-26.94784000
1.24001694	68.26991000	-24.62844000
1.24501694	67.15598000	-23.51451000
1.25001694	67.38486000	-23.74340000
1.25501694	67.44590000	-23.80444000
1.26001694	67.44590000	-23.80444000
1.26501694	67.44590000	-23.80444000
1.27001694	67.44590000	-23.80444000
1.27501694	67.44590000	-23.80444000
1.28001694	67.44590000	-23.80444000
1.28501694	67.44590000	-23.74340000
1.29001694	67.44590000	-23.51451000
1.29501694	67.44590000	-24.68947000
1.30001694	67.44590000	-27.23777000
1.30501694	67.44590000	-27.23777000
1.31001694	67.44590000	-24.68947000
1.31501694	67.50694000	-23.51451000
1.32001694	67.73582000	-23.74340000
1.32501694	66.62190000	-23.74340000
1.33001694	64.30249000	-23.51451000
1.33501694	63.18857000	-24.62844000
1.34001694	63.41746000	-26.94784000
1.34501694	63.47850000	-28.06177000
1.35001694	63.47850000	-27.83288000
1.35501694	63.47850000	-27.77184000
1.36001694	63.47850000	-27.77184000
1.36501694	63.47850000	-27.77184000
1.37001694	63.47850000	-27.77184000
1.37501694	63.47850000	-27.77184000
1.38001694	63.47850000	-27.77184000
1.38501694	63.47850000	-27.77184000
1.39001694	63.47850000	-27.77184000
1.39501694	63.53953000	-27.77184000
1.40001694	63.76842000	-27.77184000
1.40501694	62.59346000	-27.77184000
1.41001694	60.04517000	-27.77184000
1.41501694	60.10620000	-27.77184000
1.42001694	62.88339000	-27.77184000
1.42501694	62.94442000	-27.77184000
1.43001694	60.39613000	-27.77184000
1.43501694	59.22116000	-27.77184000
1.44001694	59.45005000	-27.77184000
1.44501694	59.51109000	-27.77184000
1.45001694	59.51109000	-27.77184000
1.45501694	59.51109000	-27.77184000
1.46001694	59.51109000	-27.77184000
1.46501694	59.51109000	-27.77184000
1.47001694	59.51109000	-27.77184000
1.47501694	59.51109000	-27.77184000
1.48001694	59.51109000	-27.77184000
1.48501694	59.51109000	-27.77184000
1.49001694	59.51109000	-27.77184000
1.49501694	59.51109000	-27.77184000
1.50001694	59.51109000	-27.77184000
1.50501694	59.51109000	-27.77184000
1.51001694	59.51109000	-27.77184000
1.51501694	59.57213000	-27.77184000
1.52001694	59.80102000	-27.77184000
1.52501694	58.68709000	-27.77184000
1.53001694	56.36768000	-27.77184000
1.53501694	55.25376000	-27.77184000
1.54001694	55.48264000	-27.77184000
1.54501694	55.54368000	-27.77184000
1.55001694	55.54368000	-27.77184000
1.55501694	55.54368000	-27.77184000
1.56001694	55.54368000	-27.77184000
1.56501694	55.54368000	-27.77184000
1.57001694	55.54368000	-27.77184000
1.57501694	55.54368000	-27.77184000
1.58001694	55.54368000	-27.77184000
1.58501694	55.54368000	-27.77184000
1.59001694	55.54368000	-27.77184000
1.59501694	55.60472000	-27.77184000
1.60001694	55.83361000	-27.77184000
1.60501694	54.65865000	-27.77184000
1.61001694	52.11035000	-27.77184000
1.61501694	52.17139000	-27.77184000
1.62001694	54.94857000	-27.77184000
1.62501694	55.00961000	-27.77184000
1.63001694	52.46132000	-27.77184000
1.63501694	51.28635000	-27.83288000
1.64001694	51.51524000	-28.06177000
1.64501694	51.57627000	-26.94784000
1.65001694	51.57627000	-24.62844000
1.65501694	51.57627000	-23.51451000
1.66001694	51.57627000	-23.74340000
1.66501694	51.57627000	-23.74340000
1.67001694	51.57627000	-23.51451000
1.67501694	51.57627000	-24.62844000
1.68001694	51.57627000	-26.94784000
1.68501694	51.63731000	-28.06177000
1.69001694	51.86620000	-27.83288000
1.69501694	50.75228000	-27.77184000
1.70001694	48.43287000	-27.77184000
1.70501694	47.31895000	-27.77184000
1.71001694	47.54784000	-27.77184000
1.71501694	47.60887000	-27.77184000
1.72001694	47.60887000	-27.77184000
1.72501694	47.60887000	-27.77184000
1.73001694	47.60887000	-27.77184000
1.73501694	47.60887000	-27.77184000
1.74001694	47.60887000	-27.77184000
1.74501694	47.60887000	-27.77184000
1.75001694	47.60887000	-27.77184000
1.75501694	47.60887000	-27.77184000
1.76001694	47.60887000	-27.77184000
1.76501694	47.60887000	-27.77184000
1.77001694	47.60887000	-27.77184000
1.77501694	47.60887000	-27.77184000
1.78001694	47.60887000	-27.77184000
1.78501694	47.60887000	-27.77184000
1.79001694	47.60887000	-27.77184000
1.79501694	47.60887000	-27.83288000
1.80001694	47.60887000	-28.06177000
1.80501694	47.60887000	-26.88680000
1.81001694	47.60887000	-24.33851000
1.81501694	47.60887000	-24.39955000
1.82001694	47.60887000	-27.17673000
1.82501694	47.60887000	-27.23777000
1.83001694	47.60887000	-24.68947000
1.83501694	47.66991000	-23.51451000
1.84001694	47.89880000	-23.74340000
1.84501694	46.78487000	-23.80444000
1.85001694	44.46547000	-23.80444000
1.85501694	43.35154000	-23.80444000
1.86001694	43.58043000	-23.80444000
1.86501694	43.64147000	-23.80444000
1.87001694	43.64147000	-23.80444000
1.87501694	43.64147000	-23.74340000
1.88001694	43.64147000	-23.51451000
1.88501694	43.64147000	-24.68947000
1.89001694	43.64147000	-27.23777000
1.89501694	43.64147000	-27.23777000
1.90001694	43.64147000	-24.68947000
1.90501694	43.64147000	-23.51451000
1.91001694	43.64147000	-23.74340000
1.91501694	43.64147000	-23.80444000
1.92001694	43.64147000	-23.80444000
1.92501694	43.64147000	-23.80444000
1.93001694	43.64147000	-23.80444000
1.93501694	43.70250000	-23.80444000
1.94001694	43.93139000	-23.80444000
1.94501694	42.81747000	-23.74340000
1.95001694	40.49806000	-23.51451000
1.95501694	39.38414000	-24.68947000
1.96001694	39.61302000	-27.23777000
1.96501694	39.67406000	-27.23777000
1.97001694	39.67406000	-24.68947000
1.97501694	39.67406000	-23.51451000
1.98001694	39.67406000	-23.74340000
1.98501694	39.67406000	-23.80444000
1.99001694	39.67406000	-23.80444000
1.99501694	39.67406000	-23.74340000
2.00001694	39.67406000	-23.51451000
2.00501694	39.67406000	-24.62844000
2.01001694	39.67406000	-26.94784000
2.01501694	39.67406000	-28.06177000
2.02001694	39.67406000	-27.83288000
2.02501694	39.67406000	-27.83288000
2.03001694	39.67406000	-28.06177000
2.03501694	39.67406000	-26.88680000
2.04001694	39.67406000	-24.33851000
2.04501694	39.73510000	-24.33851000
2.05001694	39.96399000	-26.88680000
2.05501694	38.78902000	-28.06177000
2.06001694	36.24073000	-27.83288000
2.06501694	36.30176000	-27.77184000
2.07001694	39.07895000	-27.77184000
2.07501694	39.13999000	-27.77184000
2.08001694	36.59169000	-27.77184000
2.08501694	35.41673000	-27.77184000
2.09001694	35.64562000	-27.77184000
2.09501694	35.70665000	-27.77184000
2.10001694	35.70665000	-27.77184000
2.10501694	35.70665000	-27.77184000
2.11001694	35.70665000	-27.77184000
2.11501694	35.70665000	-27.77184000
2.12001694	35.70665000	-27.77184000
2.12501694	35.70665000	-27.77184000
2.13001694	35.70665000	-27.77184000
2.13501694	35.70665000	-27.83288000
2.14001694	35.70665000	-28.06177000
2.14501694	35.70665000	-26.88680000
2.15001694	35.70665000	-24.33851000
2.15501694	35.70665000	-24.33851000
2.16001694	35.70665000	-26.88680000
2.16501694	35.76769000	-28.12280000
2.17001694	35.99658000	-28.12280000
2.17501694	34.82162000	-26.88680000
2.18001694	32.27332000	-24.33851000
2.18501694	32.33436000	-24.39955000
2.19001694	35.11155000	-27.17673000
2.19501694	35.17258000	-27.23777000
2.20001694	32.62428000	-24.68947000
2.20501694	31.44932000	-23.45347000
2.21001694	31.67821000	-23.45347000
2.21501694	31.67821000	-24.62844000
2.22001694	31.44932000	-26.94784000
2.22501694	32.62428000	-28.06177000
2.23001694	35.17258000	-27.83288000
2.23501694	35.17258000	-27.83288000
2.24001694	32.62428000	-28.06177000
2.24501694	31.44932000	-26.94784000
2.25001693	31.67821000	-24.62844000
2.25501693	31.73925000	-23.45347000
2.26001693	31.73925000	-23.45347000
2.26501693	31.73925000	-24.68947000
2.27001693	31.73925000	-27.23777000
2.27501693	31.73925000	-27.17673000
2.28001693	31.73925000	-24.39955000
2.28501693	31.73925000	-24.33851000
2.29001693	31.73925000	-26.88680000
2.29501693	31.73925000	-28.06177000
2.30001693	31.73925000	-27.83288000
2.30501693	31.73925000	-27.77184000
2.31001693	31.73925000	-27.77184000
2.31501693	31.73925000	-27.77184000
2.32001693	31.73925000	-27.77184000
2.32501693	31.73925000	-27.77184000
2.33001693	31.73925000	-27.77184000
2.33501693	31.73925000	-27.77184000
2.34001693	31.73925000	-27.77184000
2.34501693	31.80028000	-27.77184000
2.35001693	32.02917000	-27.77184000
2.35501693	30.85421000	-27.77184000
2.36001693	28.30592000	-27.77184000
2.36501693	28.36695000	-27.77184000
2.37001693	31.14414000	-27.77184000
2.37501693	31.14414000	-27.77184000
2.38001693	28.36695000	-27.77184000
2.38501693	28.30592000	-27.77184000
2.39001693	30.85421000	-27.77184000
2.39501693	32.09021000	-27.77184000
2.40001693	32.09021000	-27.77184000
2.40501693	30.91525000	-27.77184000
2.41001693	28.59584000	-27.77184000
2.41501693	27.48192000	-27.77184000
2.42001693	27.71080000	-27.77184000
2.42501693	27.77184000	-27.77184000
2.43001693	27.77184000	-27.77184000
2.43501693	27.77184000	-27.77184000
2.44001693	27.77184000	-27.77184000
2.44501693	27.77184000	-27.77184000
2.45001693	27.77184000	-27.77184000
2.45501693	27.77184000	-27.77184000
2.46001693	27.77184000	-27.77184000
2.46501693	27.77184000	-27.77184000
2.47001693	27.77184000	-27.77184000
2.47501693	27.77184000	-27.77184000
2.48001693	27.77184000	-27.77184000
2.48501693	27.83288000	-27.77184000
2.49001693	28.06177000	-27.77184000
2.49501693	26.94784000	-27.77184000
2.50001693	24.62844000	-27.77184000
2.50501693	23.51451000	-27.77184000
2.51001693	23.74340000	-27.77184000
2.51501693	23.80444000	-27.77184000
2.52001693	23.80444000	-27.77184000
2.52501693	23.80444000	-27.77184000
2.53001693	23.80444000	-27.77184000
2.53501693	23.80444000	-27.77184000
2.54001693	23.80444000	-27.77184000
2.54501693	23.80444000	-27.77184000
2.55001693	23.80444000	-27.77184000
2.55501693	23.80444000	-27.77184000
2.56001693	23.80444000	-27.77184000
2.56501693	23.80444000	-27.77184000
2.57001693	23.80444000	-27.77184000
2.57501693	23.80444000	-27.77184000
2.58001693	23.80444000	-27.77184000
2.58501693	23.80444000	-27.77184000
2.59001693	23.80444000	-27.77184000
2.59501693	23.80444000	-27.77184000
2.60001693	23.80444000	-27.77184000
2.60501693	23.80444000	-27.77184000
2.61001693	23.80444000	-27.77184000
2.61501693	23.80444000	-27.77184000
2.62001693	23.80444000	-27.77184000
2.62501693	23.80444000	-27.77184000
2.63001693	23.80444000	-27.77184000
2.63501693	23.80444000	-27.77184000
2.64001693	23.80444000	-27.77184000
2.64501693	23.80444000	-27.77184000
2.65001693	23.80444000	-27.77184000
2.65501693	23.80444000	-27.77184000
2.66001693	23.80444000	-27.77184000
2.66501693	23.80444000	-27.77184000
2.67001693	23.80444000	-27.77184000
2.67501693	23.80444000	-27.77184000
2.68001693	23.80444000	-27.77184000
2.68501693	23.80444000	-27.77184000
2.69001693	23.80444000	-27.77184000
2.69501693	23.86547000	-27.83288000
2.70001693	24.09436000	-28.06177000
2.70501693	22.98043000	-26.88680000
2.71001693	20.66103000	-24.33851000
2.71501693	19.54710000	-24.39955000
2.72001693	19.77599000	-27.17673000
2.72501693	19.83703000	-27.23777000
2.73001693	19.83703000	-24.68947000
2.73501693	19.83703000	-23.51451000
2.74001693	19.83703000	-23.74340000
2.74501693	19.83703000	-23.74340000
2.75001693	19.83703000	-23.51451000
2.75501693	19.83703000	-24.62844000
2.76001693	19.83703000	-26.94784000
2.76501693	19.83703000	-28.06177000
2.77001693	19.83703000	-27.83288000
2.77501693	19.83703000	-27.77184000
2.78001693	19.83703000	-27.77184000
2.78501693	19.83703000	-27.77184000
2.79001693	19.83703000	-27.77184000
2.79501693	19.83703000	-27.77184000
2.80001693	19.83703000	-27.77184000
2.80501693	19.83703000	-27.77184000
2.81001693	19.83703000	-27.77184000
2.81501693	19.83703000	-27.77184000
2.82001693	19.83703000	-27.77184000
2.82501693	19.83703000	-27.77184000
2.83001693	19.83703000	-27.77184000
2.83501693	19.89807000	-27.83288000
2.84001693	20.12696000	-28.06177000
2.84501693	18.95199000	-26.94784000
2.85001693	16.40370000	-24.62844000
2.85501693	16.46474000	-23.45347000
2.86001693	19.24192000	-23.45347000
2.86501693	19.30296000	-24.62844000
2.87001693	16.75466000	-26.94784000
2.87501693	15.51866000	-28.06177000
2.88001693	15.51866000	-27.83288000
2.88501693	16.75466000	-27.83288000
2.89001693	19.30296000	-28.06177000
2.89501693	19.30296000	-26.94784000
2.90001693	16.75466000	-24.62844000
2.90501693	15.57970000	-23.45347000
2.91001693	15.80859000	-23.45347000
2.91501693	15.86962000	-24.62844000
2.92001693	15.86962000	-26.94784000
2.92501693	15.86962000	-28.06177000
2.93001693	15.86962000	-27.83288000
2.93501693	15.86962000	-27.77184000
2.94001693	15.86962000	-27.77184000
2.94501693	15.86962000	-27.77184000
2.95001693	15.86962000	-27.77184000
2.95501693	15.86962000	-27.77184000
2.96001693	15.86962000	-27.77184000
2.96501693	15.86962000	-27.77184000
2.97001693	15.86962000	-27.77184000
2.97501693	15.86962000	-27.77184000
2.98001693	15.86962000	-27.77184000
2.98501693	15.86962000	-27.77184000
2.99001693	15.86962000	-27.77184000
2.99501693	15.86962000	-27.83288000
3.00001693	15.86962000	-28.06177000
3.00501693	15.86962000	-26.88680000
3.01001693	15.86962000	-24.33851000
3.01501693	15.86962000	-24.39955000
3.02001693	15.86962000	-27.17673000
3.02501693	15.86962000	-27.23777000
3.03001693	15.86962000	-24.68947000
3.03501693	15.86962000	-23.51451000
3.04001693	15.86962000	-23.74340000
3.04501693	15.86962000	-23.80444000
3.05001693	15.86962000	-23.80444000
3.05501693	15.86962000	-23.80444000
3.06001693	15.86962000	-23.80444000
3.06501693	15.93066000	-23.80444000
3.07001693	16.15955000	-23.80444000
3.07501693	14.98459000	-23.74340000
3.08001693	12.43629000	-23.51451000
3.08501693	12.43629000	-24.68947000
3.09001693	14.98459000	-27.23777000
3.09501693	16.15955000	-27.23777000
3.10001693	15.93066000	-24.68947000
3.10501693	15.86962000	-23.51451000
3.11001693	15.86962000	-23.74340000
3.11501693	15.93066000	-23.74340000
3.12001693	16.15955000	-23.51451000
3.12501693	14.98459000	-24.68947000
3.13001693	12.43629000	-27.23777000
3.13501693	12.49733000	-27.23777000
3.14001693	15.27451000	-24.68947000
3.14501693	15.27451000	-23.45347000
3.15001693	12.49733000	-23.45347000
3.15501693	12.49733000	-24.62844000
3.16001693	15.27451000	-26.94784000
3.16501693	15.33555000	-28.06177000
3.17001693	12.78725000	-27.83288000
3.17501693	11.61229000	-27.77184000
3.18001693	11.84118000	-27.77184000
3.18501693	11.90222000	-27.77184000
3.19001693	11.90222000	-27.77184000
3.19501693	11.90222000	-27.77184000
3.20001693	11.90222000	-27.77184000
3.20501693	11.90222000	-27.77184000
3.21001693	11.90222000	-27.77184000
3.21501693	11.90222000	-27.77184000
3.22001693	11.90222000	-27.77184000
3.22501693	11.90222000	-27.77184000
3.23001693	11.90222000	-27.77184000
3.23501693	11.90222000	-27.77184000
3.24001693	11.90222000	-27.77184000
3.24501693	11.90222000	-27.77184000
3.25001693	11.90222000	-27.77184000
3.25501693	11.90222000	-27.77184000
3.26001693	11.90222000	-27.77184000
3.26501693	11.90222000	-27.77184000
3.27001693	11.90222000	-27.77184000
3.27501693	11.90222000	-27.77184000
3.28001693	11.90222000	-27.77184000
3.28501693	11.90222000	-27.83288000
3.29001693	11.90222000	-28.06177000
3.29501693	11.90222000	-26.88680000
3.30001693	11.90222000	-24.33851000
3.30501693	11.90222000	-24.33851000
3.31001693	11.90222000	-26.88680000
3.31501693	11.96325000	-28.12280000
3.32001693	12.19214000	-28.12280000
3.32501693	11.01718000	-26.88680000
3.33001693	8.46888600	-24.33851000
3.33501693	8.52992300	-24.39955000
3.34001693	11.30711000	-27.17673000
3.34501693	11.36814000	-27.17673000
3.35001693	8.81984900	-24.39955000
3.35501693	7.64488600	-24.39955000
3.36001693	7.87377500	-27.17673000
3.36501693	7.93481200	-27.23777000
3.37001693	7.93481200	-24.68947000
3.37501693	7.93481200	-23.51451000
3.38001693	7.93481200	-23.74340000
3.38501693	7.93481200	-23.74340000
3.39001693	7.93481200	-23.51451000
3.39501693	7.93481200	-24.62844000
3.40001693	7.93481200	-26.94784000
3.40501693	7.93481200	-28.06177000
3.41001693	7.93481200	-27.83288000
3.41501693	7.93481200	-27.77184000
3.42001693	7.93481200	-27.77184000
3.42501693	7.93481200	-27.77184000
3.43001693	7.93481200	-27.77184000
3.43501693	7.93481200	-27.77184000
3.44001693	7.93481200	-27.77184000
3.44501693	7.93481200	-27.77184000
3.45001693	7.93481200	-27.77184000
3.45501693	7.93481200	-27.77184000
3.46001693	7.93481200	-27.77184000
3.46501693	7.93481200	-27.77184000
3.47001693	7.93481200	-27.77184000
3.47501693	7.93481200	-27.77184000
3.48001693	7.93481200	-27.77184000
3.48501693	7.93481200	-27.83288000
3.49001693	7.93481200	-28.06177000
3.49501693	7.93481200	-27.00888000
3.50001693	7.93481200	-24.91836000
3.50501693	7.93481200	-22.85836000
3.51001693	7.93481200	-21.48503000
3.51501693	7.93481200	-17.30400000
3.52001693	7.93481200	-11.52074000
3.52501693	7.93481200	-4.04370200
3.53001693	7.93481200	3.34177700
3.53501693	7.93481200	12.93985000
3.54001693	7.93481200	22.41584000
3.54501693	7.93481200	33.00576000
3.55001693	7.93481200	42.02398000
3.55501693	7.93481200	53.72783000
3.56001693	7.93481200	65.30961000
3.56501693	7.93481200	77.01345000
3.57001693	7.93481200	86.03167000
3.57501693	7.93481200	96.68263000
3.58001693	7.93481200	106.38750000
3.58501693	7.93481200	114.81060000
3.59001693	7.93481200	119.64780000
3.59501693	7.93481200	127.06380000
3.60001693	7.93481200	135.16650000
3.60501693	7.93481200	141.63640000
3.61001693	7.93481200	145.11550000
3.61501693	7.99584900	148.18260000
3.62001693	8.22473800	149.78480000
3.62501693	7.11081200	151.90590000
3.63001693	4.79140600	153.99640000
3.63501693	3.61644300	155.11030000
3.64001693	3.61644300	155.11030000
3.64501693	4.79140600	153.99640000
3.65001693	7.11081200	151.90590000
3.65501693	8.28577500	149.73910000
3.66001693	8.28577500	147.87740000
3.66501693	7.11081200	145.81740000
3.67001693	4.79140600	144.21520000
3.67501693	3.67748000	141.02600000
3.68001693	3.90636900	137.08910000
3.68501693	3.96740600	132.78600000
3.69001693	3.96740600	129.09330000
3.69501693	3.96740600	124.85120000
3.70001693	3.96740600	121.15850000
3.70501693	3.96740600	116.91640000
3.71001693	3.96740600	113.22370000
3.71501693	3.96740600	108.98160000
3.72001693	3.96740600	105.28880000
3.72501693	3.96740600	101.04680000
3.73001693	3.96740600	97.35404000
3.73501693	3.96740600	93.11196000
3.74001693	3.96740600	89.41923000
3.74501693	3.96740600	85.11612000
3.75001693	3.96740600	81.19450000
3.75501693	3.96740600	78.06635000
3.76001693	3.96740600	76.69301000
3.76501693	3.96740600	73.50382000
3.77001693	3.96740600	69.33805000
3.77501693	3.96740600	66.14886000
3.78001693	3.96740600	64.77553000
3.78501693	3.96740600	61.58635000
3.79001693	3.96740600	57.43583000
3.79501693	3.96740600	54.18561000
3.80001693	3.96740600	52.58339000
3.80501693	3.96740600	50.52339000
3.81001693	3.96740600	48.66176000
3.81501693	3.96740600	46.55598000
3.82001693	3.96740600	44.69436000
3.82501693	3.96740600	42.58858000
3.83001693	3.96740600	40.72695000
3.83501693	3.96740600	38.62117000
3.84001693	3.96740600	36.75954000
3.84501693	3.96740600	34.65377000
3.85001693	3.96740600	32.79214000
3.85501693	3.96740600	30.62532000
3.86001693	3.96740600	28.53481000
3.86501693	3.96740600	27.54295000
3.87001693	3.96740600	28.00073000
3.87501693	3.96740600	26.94784000
3.88001693	3.96740600	24.62844000
3.88501693	3.96740600	23.51451000
3.89001693	3.96740600	23.74340000
3.89501692	3.96740600	23.86547000
3.90001692	3.96740600	24.09436000
3.90501692	4.02844300	22.98043000
3.91001692	4.25733200	20.66103000
3.91501692	3.14340600	19.60814000
3.92001692	0.82399970	20.06592000
3.92501692	-0.28992580	19.01303000
3.93001692	-0.06103702	16.69362000
3.93501692	0.00000000	15.64073000
3.94001692	0.00000000	16.09851000
3.94501692	-0.06103702	15.04562000
3.95001692	-0.28992580	12.72622000
3.95501692	0.88503670	11.61229000
3.96001692	3.43333200	11.84118000
3.96501692	3.43333200	11.90222000
3.97001692	0.88503670	11.90222000
3.97501692	-0.28992580	11.96325000
3.98001692	-0.06103702	12.19214000
3.98501692	0.00000000	11.07822000
3.99001692	0.00000000	8.75881200
3.99501692	0.00000000	7.70592300
4.00001692	0.00000000	8.16370100
4.00501692	0.00000000	7.11081200
4.01001692	0.00000000	4.79140600
4.01501692	0.00000000	3.67748000
4.02001692	0.00000000	3.90636900
4.02501692	0.00000000	3.96740600
4.03001692	0.00000000	3.96740600
4.03501692	0.00000000	4.02844300
4.04001692	0.00000000	4.25733200
4.04501692	0.00000000	3.14340600
4.05001692	0.00000000	0.82399970
4.05501692	0.00000000	-0.28992580
4.06001692	0.00000000	-0.06103702
4.06501692	0.00000000	0.00000000
4.07001692	0.00000000	0.00000000
4.07501692	0.00000000	0.06103702
4.08001692	0.00000000	0.28992580
4.08501692	0.00000000	-0.82399970
4.09001692	0.00000000	-3.14340600
4.09501692	0.00000000	-4.25733200
4.10001692	0.00000000	-4.02844300
4.10501692	0.00000000	-3.96740600
4.11001692	0.00000000	-3.96740600
4.11501692	0.00000000	-3.90636900
4.12001692	0.00000000	-3.67748000
4.12501692	0.00000000	-4.79140600
4.13001692	0.00000000	-7.11081200
4.13501692	0.00000000	-8.22473800
4.14001692	0.00000000	-7.99584900
4.14501692	0.00000000	-7.93481200
4.15001692	0.00000000	-7.93481200
4.15501692	0.00000000	-7.93481200
4.16001692	0.00000000	-7.93481200
4.16501692	0.00000000	-7.93481200
4.17001692	0.00000000	-7.93481200
4.17501692	0.00000000	-7.93481200
4.18001692	0.00000000	-7.93481200
4.18501692	0.00000000	-7.93481200
4.19001692	0.00000000	-7.93481200
4.19501692	0.00000000	-7.93481200
4.20001692	0.00000000	-7.93481200
4.20501692	0.00000000	-7.93481200
4.21001692	0.00000000	-7.93481200
4.21501692	0.00000000	-7.93481200
4.22001692	0.00000000	-7.93481200
4.22501692	0.00000000	-7.93481200
4.23001692	0.00000000	-7.93481200
4.23501692	0.00000000	-7.93481200
4.24001692	0.00000000	-7.93481200
4.24501692	0.00000000	-7.93481200
4.25001692	0.00000000	-7.93481200
4.25501692	0.06103702	-7.93481200
4.26001692	0.28992580	-7.93481200
4.26501692	-0.88503670	-7.93481200
4.27001692	-3.43333200	-7.93481200
4.27501692	-3.43333200	-7.93481200
4.28001692	-0.88503670	-7.93481200
4.28501692	0.35096280	-7.93481200
4.29001692	0.35096280	-7.93481200
4.29501692	-0.88503670	-7.87377500
4.30001692	-3.43333200	-7.64488600
4.30501692	-3.43333200	-8.75881200
4.31001692	-0.88503670	-11.07822000
4.31501692	0.28992580	-12.19214000
4.32001692	0.06103702	-11.96325000
4.32501692	0.06103702	-11.90222000
4.33001692	0.28992580	-11.90222000
4.33501692	-0.88503670	-11.90222000
4.34001692	-3.43333200	-11.90222000
4.34501692	-3.43333200	-11.90222000
4.35001692	-0.88503670	-11.90222000
4.35501692	0.35096280	-11.90222000
4.36001692	0.35096280	-11.90222000
4.36501692	-0.82399970	-11.90222000
4.37001692	-3.14340600	-11.90222000
4.37501692	-4.25733200	-11.84118000
4.38001692	-4.02844300	-11.61229000
4.38501692	-3.96740600	-12.72622000
4.39001692	-3.96740600	-15.04562000
4.39501692	-3.96740600	-16.15955000
4.40001692	-3.96740600	-15.93066000
4.40501692	-3.96740600	-15.86962000
4.41001692	-3.96740600	-15.86962000
4.41501692	-3.96740600	-15.86962000
4.42001692	-3.96740600	-15.86962000
4.42501692	-3.96740600	-15.86962000
4.43001692	-3.96740600	-15.86962000
4.43501692	-3.96740600	-15.86962000
4.44001692	-3.96740600	-15.86962000
4.44501692	-3.96740600	-15.86962000
4.45001692	-3.96740600	-15.86962000
4.45501692	-3.96740600	-15.86962000
4.46001692	-3.96740600	-15.86962000
4.46501692	-3.96740600	-15.86962000
4.47001692	-3.96740600	-15.86962000
4.47501692	-3.96740600	-15.86962000
4.48001692	-3.96740600	-15.86962000
4.48501692	-3.96740600	-15.86962000
4.49001692	-3.96740600	-15.86962000
4.49501692	-3.96740600	-15.86962000
4.50001692	-3.96740600	-15.86962000
4.50501692	-3.96740600	-15.86962000
4.51001692	-3.96740600	-15.86962000
4.51501692	-3.96740600	-15.86962000
4.52001692	-3.96740600	-15.86962000
4.52501692	-3.96740600	-15.93066000
4.53001692	-3.96740600	-16.15955000
4.53501692	-3.96740600	-14.98459000
4.54001692	-3.96740600	-12.43629000
4.54501692	-3.96740600	-12.43629000
4.55001692	-3.96740600	-14.98459000
4.55501692	-3.96740600	-16.15955000
4.56001692	-3.96740600	-15.93066000
4.56501692	-3.96740600	-15.86962000
4.57001692	-3.96740600	-15.86962000
4.57501692	-3.96740600	-15.86962000
4.58001692	-3.96740600	-15.86962000
4.58501692	-3.96740600	-15.86962000
4.59001692	-3.96740600	-15.86962000
4.59501692	-3.96740600	-15.86962000
4.60001692	-3.96740600	-15.86962000
4.60501692	-3.96740600	-15.86962000
4.61001692	-3.96740600	-15.86962000
4.61501692	-3.96740600	-15.86962000
4.62001692	-3.96740600	-15.86962000
4.62501692	-3.96740600	-15.86962000
4.63001692	-3.96740600	-15.86962000
4.63501692	-3.96740600	-15.86962000
4.64001692	-3.96740600	-15.86962000
4.64501692	-3.96740600	-15.86962000
4.65001692	-3.96740600	-15.86962000
4.65501692	-3.96740600	-15.86962000
4.66001692	-3.96740600	-15.86962000
4.66501692	-3.96740600	-15.86962000
4.67001692	-3.96740600	-15.86962000
4.67501692	-3.96740600	-15.86962000
4.68001692	-3.96740600	-15.86962000
4.68501692	-3.96740600	-15.86962000
4.69001692	-3.96740600	-15.86962000
4.69501692	-3.96740600	-15.86962000
4.70001692	-3.96740600	-15.86962000
4.70501692	-3.96740600	-15.86962000
4.71001692	-3.96740600	-15.86962000
4.71501692	-3.96740600	-15.86962000
4.72001692	-3.96740600	-15.86962000
4.72501692	-3.96740600	-15.86962000
4.73001692	-3.96740600	-15.86962000
4.73501692	-3.96740600	-15.86962000
4.74001692	-3.96740600	-15.86962000
4.74501692	-3.96740600	-15.86962000
4.75001692	-3.96740600	-15.86962000
4.75501692	-3.96740600	-15.80859000
4.76001692	-3.96740600	-15.57970000
4.76501692	-3.90636900	-16.69362000
4.77001692	-3.67748000	-19.01303000
4.77501692	-4.79140600	-20.12696000
4.78001692	-7.11081200	-19.89807000
4.78501692	-8.22473800	-19.89807000
4.79001692	-7.99584900	-20.12696000
4.79501692	-7.99584900	-19.01303000
4.80001692	-8.22473800	-16.69362000
4.80501692	-7.11081200	-15.51866000
4.81001692	-4.79140600	-15.51866000
4.81501692	-3.61644300	-16.69362000
4.82001692	-3.61644300	-19.01303000
4.82501692	-4.85244300	-20.12696000
4.83001692	-7.40073800	-19.89807000
4.83501692	-7.40073800	-19.83703000
4.84001692	-4.85244300	-19.83703000
4.84501692	-3.61644300	-19.83703000
4.85001692	-3.61644300	-19.83703000
4.85501692	-4.79140600	-19.83703000
4.86001692	-7.11081200	-19.83703000
4.86501692	-8.22473800	-19.83703000
4.87001692	-7.99584900	-19.83703000
4.87501692	-7.93481200	-19.83703000
4.88001692	-7.93481200	-19.83703000
4.88501692	-7.93481200	-19.83703000
4.89001692	-7.93481200	-19.83703000
4.89501692	-7.93481200	-19.83703000
4.90001692	-7.93481200	-19.83703000
4.90501692	-7.93481200	-19.83703000
4.91001692	-7.93481200	-19.83703000
4.91501692	-7.93481200	-19.83703000
4.92001692	-7.93481200	-19.83703000
4.92501692	-7.93481200	-19.77599000
4.93001692	-7.93481200	-19.54710000
4.93501692	-7.93481200	-20.72207000
4.94001692	-7.93481200	-23.27036000
4.94501692	-7.93481200	-23.27036000
4.95001692	-7.93481200	-20.72207000
4.95501692	-7.93481200	-19.54710000
4.96001692	-7.93481200	-19.77599000
4.96501692	-7.93481200	-19.83703000
4.97001692	-7.93481200	-19.83703000
4.97501692	-7.99584900	-19.83703000
4.98001692	-8.22473800	-19.83703000
4.98501692	-7.04977500	-19.83703000
4.99001692	-4.50148000	-19.83703000
4.99501692	-4.50148000	-19.83703000
5.00001692	-7.04977500	-19.83703000
5.00501692	-8.22473800	-19.83703000
5.01001692	-7.99584900	-19.83703000
5.01501692	-7.93481200	-19.83703000
5.02001692	-7.93481200	-19.83703000
5.02501692	-7.93481200	-19.83703000
5.03001692	-7.93481200	-19.83703000
5.03501692	-7.93481200	-19.83703000
5.04001692	-7.93481200	-19.83703000
5.04501692	-7.93481200	-19.83703000
5.05001692	-7.93481200	-19.83703000
5.05501692	-7.93481200	-19.83703000
5.06001692	-7.93481200	-19.83703000
5.06501692	-7.93481200	-19.83703000
5.07001692	-7.93481200	-19.83703000
5.07501692	-7.93481200	-19.83703000
5.08001692	-7.93481200	-19.83703000
5.08501692	-7.93481200	-19.83703000
5.09001692	-7.93481200	-19.83703000
5.09501692	-7.93481200	-19.83703000
5.10001692	-7.93481200	-19.83703000
5.10501692	-7.93481200	-19.83703000
5.11001692	-7.93481200	-19.83703000
5.11501692	-7.93481200	-19.83703000
5.12001692	-7.93481200	-19.83703000
5.12501692	-7.93481200	-19.83703000
5.13001692	-7.93481200	-19.83703000
5.13501692	-7.93481200	-19.83703000
5.14001692	-7.93481200	-19.83703000
5.14501692	-7.93481200	-19.83703000
5.15001692	-7.93481200	-19.83703000
5.15501692	-7.93481200	-19.83703000
5.16001692	-7.93481200	-19.83703000
5.16501692	-7.93481200	-19.77599000
5.17001692	-7.93481200	-19.54710000
5.17501692	-7.93481200	-20.66103000
5.18001692	-7.93481200	-22.98043000
5.18501692	-7.93481200	-24.09436000
5.19001692	-7.93481200	-23.86547000
5.19501692	-7.93481200	-23.80444000
5.20001692	-7.93481200	-23.80444000
5.20501692	-7.93481200	-23.80444000
5.21001692	-7.93481200	-23.80444000
5.21501692	-7.93481200	-23.80444000
5.22001692	-7.93481200	-23.80444000
5.22501692	-7.93481200	-23.80444000
5.23001692	-7.93481200	-23.80444000
5.23501692	-7.93481200	-23.86547000
5.24001692	-7.93481200	-24.09436000
5.24501692	-7.93481200	-22.98043000
5.25001692	-7.93481200	-20.66103000
5.25501692	-7.93481200	-19.54710000
5.26001692	-7.93481200	-19.77599000
5.26501692	-7.93481200	-19.83703000
5.27001692	-7.93481200	-19.83703000
5.27501692	-7.93481200	-19.83703000
5.28001692	-7.93481200	-19.83703000
5.28501692	-7.93481200	-19.77599000
5.29001692	-7.93481200	-19.54710000
5.29501692	-7.93481200	-20.72207000
5.30001692	-7.93481200	-23.27036000
5.30501692	-7.93481200	-23.27036000
5.31001692	-7.93481200	-20.72207000
5.31501692	-7.93481200	-19.48607000
5.32001692	-7.93481200	-19.48607000
5.32501692	-7.93481200	-20.72207000
5.33001692	-7.93481200	-23.27036000
5.33501692	-7.87377500	-23.20932000
5.34001692	-7.64488600	-20.43214000
5.34501692	-8.81984900	-20.37111000
5.35001692	-11.36814000	-22.91940000
5.35501692	-11.36814000	-24.15540000
5.36001692	-8.81984900	-24.15540000
5.36501692	-7.64488600	-22.91940000
5.37001692	-7.87377500	-20.37111000
5.37501692	-7.93481200	-20.37111000
5.38001692	-7.93481200	-22.91940000
5.38501692	-7.87377500	-24.09436000
5.39001692	-7.64488600	-23.86547000
5.39501692	-8.81984900	-23.80444000
5.40001692	-11.36814000	-23.80444000
5.40501692	-11.36814000	-23.86547000
5.41001692	-8.81984900	-24.09436000
5.41501692	-7.58384900	-22.91940000
5.42001692	-7.58384900	-20.37111000
5.42501692	-8.81984900	-20.37111000
5.43001692	-11.36814000	-22.91940000
5.43501692	-11.30711000	-24.09436000
5.44001692	-8.52992300	-23.86547000
5.44501692	-8.52992300	-23.80444000
5.45001692	-11.30711000	-23.80444000
5.45501692	-11.30711000	-23.80444000
5.46001692	-8.52992300	-23.80444000
5.46501692	-8.46888600	-23.80444000
5.47001692	-11.01718000	-23.80444000
5.47501692	-12.19214000	-23.80444000
5.48001692	-11.96325000	-23.80444000
5.48501692	-11.96325000	-23.80444000
5.49001692	-12.19214000	-23.80444000
5.49501692	-11.01718000	-23.80444000
5.50001692	-8.46888600	-23.80444000
5.50501692	-8.46888600	-23.80444000
5.51001692	-11.01718000	-23.80444000
5.51501692	-12.19214000	-23.80444000
5.52001692	-11.96325000	-23.80444000
5.52501692	-11.90222000	-23.80444000
5.53001692	-11.90222000	-23.80444000
5.53501692	-11.90222000	-23.80444000
5.54001691	-11.90222000	-23.80444000
5.54501691	-11.90222000	-23.80444000
5.55001691	-11.90222000	-23.80444000
5.55501691	-11.90222000	-23.80444000
5.56001691	-11.90222000	-23.80444000
5.56501691	-11.90222000	-23.80444000
5.57001691	-11.90222000	-23.80444000
5.57501691	-11.96325000	-23.80444000
5.58001691	-12.19214000	-23.80444000
5.58501691	-11.01718000	-23.80444000
5.59001691	-8.46888600	-23.80444000
5.59501691	-8.46888600	-23.80444000
5.60001691	-11.01718000	-23.80444000
5.60501691	-12.19214000	-23.80444000
5.61001691	-11.96325000	-23.80444000
5.61501691	-11.90222000	-23.80444000
5.62001691	-11.90222000	-23.80444000
5.62501691	-11.90222000	-23.80444000
5.63001691	-11.90222000	-23.80444000
5.63501691	-11.90222000	-23.80444000
5.64001691	-11.90222000	-23.80444000
5.64501691	-11.90222000	-23.80444000
5.65001691	-11.90222000	-23.80444000
5.65501691	-11.90222000	-23.80444000
5.66001691	-11.90222000	-23.80444000
5.66501691	-11.90222000	-23.80444000
5.67001691	-11.90222000	-23.80444000
5.67501691	-11.90222000	-23.80444000
5.68001691	-11.90222000	-23.80444000
5.68501691	-11.90222000	-23.80444000
5.69001691	-11.90222000	-23.80444000
5.69501691	-11.90222000	-23.80444000
5.70001691	-11.90222000	-23.80444000
5.70501691	-11.90222000	-23.80444000
5.71001691	-11.90222000	-23.80444000
5.71501691	-11.90222000	-23.80444000
5.72001691	-11.90222000	-23.80444000
5.72501691	-11.90222000	-23.80444000
5.73001691	-11.90222000	-23.80444000
5.73501691	-11.90222000	-23.80444000
5.74001691	-11.90222000	-23.80444000
5.74501691	-11.90222000	-23.80444000
5.75001691	-11.90222000	-23.80444000
5.75501691	-11.90222000	-23.80444000
5.76001691	-11.90222000	-23.80444000
5.76501691	-11.90222000	-23.80444000
5.77001691	-11.90222000	-23.80444000
5.77501691	-11.90222000	-23.80444000
5.78001691	-11.90222000	-23.80444000
5.78501691	-11.90222000	-23.80444000
5.79001691	-11.90222000	-23.80444000
5.79501691	-11.90222000	-23.80444000
5.80001691	-11.90222000	-23.80444000
5.80501691	-11.90222000	-23.80444000
5.81001691	-11.90222000	-23.80444000
5.81501691	-11.90222000	-23.80444000
5.82001691	-11.90222000	-23.80444000
5.82501691	-11.90222000	-23.80444000
5.83001691	-11.90222000	-23.80444000
5.83501691	-11.90222000	-23.80444000
5.84001691	-11.90222000	-23.80444000
5.84501691	-11.90222000	-23.80444000
5.85001691	-11.90222000	-23.80444000
5.85501691	-11.90222000	-23.80444000
5.86001691	-11.90222000	-23.80444000
5.86501691	-11.90222000	-23.80444000
5.87001691	-11.90222000	-23.80444000
5.87501691	-11.90222000	-23.80444000
5.88001691	-11.90222000	-23.80444000
5.88501691	-11.90222000	-23.80444000
5.89001691	-11.90222000	-23.80444000
5.89501691	-11.90222000	-23.80444000
5.90001691	-11.90222000	-23.80444000
5.90501691	-11.90222000	-23.80444000
5.91001691	-11.90222000	-23.80444000
5.91501691	-11.90222000	-23.80444000
5.92001691	-11.90222000	-23.80444000
5.92501691	-11.90222000	-23.80444000
5.93001691	-11.90222000	-23.80444000
5.93501691	-11.90222000	-23.80444000
5.94001691	-11.90222000	-23.80444000
5.94501691	-11.90222000	-23.80444000
5.95001691	-11.90222000	-23.80444000
5.95501691	-11.90222000	-23.80444000
5.96001691	-11.90222000	-23.80444000
5.96501691	-11.90222000	-23.80444000
5.97001691	-11.90222000	-23.80444000
5.97501691	-11.90222000	-23.80444000
5.98001691	-11.90222000	-23.80444000
5.98501691	-11.90222000	-23.80444000
5.99001691	-11.90222000	-23.80444000
5.99501691	-11.90222000	-23.80444000
6.00001691	-11.90222000	-23.80444000
6.00501691	-11.90222000	-23.80444000
6.01001691	-11.90222000	-23.80444000
6.01501691	-11.90222000	-23.80444000
6.02001691	-11.90222000	-23.80444000
6.02501691	-11.84118000	-23.80444000
6.03001691	-11.61229000	-23.80444000
6.03501691	-12.78725000	-23.80444000
6.04001691	-15.33555000	-23.80444000
6.04501691	-15.33555000	-23.80444000
6.05001691	-12.78725000	-23.80444000
6.05501691	-11.61229000	-23.80444000
6.06001691	-11.84118000	-23.80444000
6.06501691	-11.90222000	-23.80444000
6.07001691	-11.90222000	-23.80444000
6.07501691	-11.90222000	-23.80444000
6.08001691	-11.90222000	-23.80444000
6.08501691	-11.90222000	-23.80444000
6.09001691	-11.90222000	-23.80444000
6.09501691	-11.90222000	-23.80444000
6.10001691	-11.90222000	-23.80444000
6.10501691	-11.84118000	-23.80444000
6.11001691	-11.61229000	-23.80444000
6.11501691	-12.78725000	-23.80444000
6.12001691	-15.33555000	-23.80444000
6.12501691	-15.33555000	-23.80444000
6.13001691	-12.78725000	-23.80444000
6.13501691	-11.61229000	-23.80444000
6.14001691	-11.84118000	-23.80444000
6.14501691	-11.84118000	-23.80444000
6.15001691	-11.61229000	-23.80444000
6.15501691	-12.78725000	-23.80444000
6.16001691	-15.33555000	-23.80444000
6.16501691	-15.33555000	-23.80444000
6.17001691	-12.78725000	-23.80444000
6.17501691	-11.55125000	-23.80444000
6.18001691	-11.55125000	-23.80444000
6.18501691	-12.72622000	-23.80444000
6.19001691	-15.04562000	-23.80444000
6.19501691	-16.15955000	-23.80444000
6.20001691	-15.93066000	-23.80444000
6.20501691	-15.86962000	-23.80444000
6.21001691	-15.86962000	-23.80444000
6.21501691	-15.86962000	-23.80444000
6.22001691	-15.86962000	-23.80444000
6.22501691	-15.93066000	-23.80444000
6.23001691	-16.15955000	-23.80444000
6.23501691	-14.98459000	-23.80444000
6.24001691	-12.43629000	-23.80444000
6.24501691	-12.43629000	-23.80444000
6.25001691	-14.98459000	-23.80444000
6.25501691	-16.15955000	-23.80444000
6.26001691	-15.93066000	-23.80444000
6.26501691	-15.86962000	-23.80444000
6.27001691	-15.86962000	-23.80444000
6.27501691	-15.86962000	-23.74340000
6.28001691	-15.86962000	-23.51451000
6.28501691	-15.86962000	-24.68947000
6.29001691	-15.86962000	-27.23777000
6.29501691	-15.93066000	-27.23777000
6.30001691	-16.15955000	-24.68947000
6.30501691	-15.04562000	-23.51451000
6.31001691	-12.72622000	-23.74340000
6.31501691	-11.55125000	-23.80444000
6.32001691	-11.55125000	-23.80444000
6.32501691	-12.72622000	-23.80444000
6.33001691	-15.04562000	-23.80444000
6.33501691	-16.22059000	-23.80444000
6.34001691	-16.22059000	-23.80444000
6.34501691	-14.98459000	-23.74340000
6.35001691	-12.43629000	-23.51451000
6.35501691	-12.43629000	-24.68947000
6.36001691	-14.98459000	-27.23777000
6.36501691	-16.15955000	-27.23777000
6.37001691	-15.93066000	-24.68947000
6.37501691	-15.86962000	-23.51451000
6.38001691	-15.86962000	-23.74340000
6.38501691	-15.86962000	-23.80444000
6.39001691	-15.86962000	-23.80444000
6.39501691	-15.86962000	-23.80444000
6.40001691	-15.86962000	-23.80444000
6.40501691	-15.86962000	-23.80444000
6.41001691	-15.86962000	-23.80444000
6.41501691	-15.86962000	-23.80444000
6.42001691	-15.86962000	-23.80444000
6.42501691	-15.86962000	-23.80444000
6.43001691	-15.86962000	-23.80444000
6.43501691	-15.86962000	-23.80444000
6.44001691	-15.86962000	-23.80444000
6.44501691	-15.86962000	-23.80444000
6.45001691	-15.86962000	-23.80444000
6.45501691	-15.86962000	-23.80444000
6.46001691	-15.86962000	-23.80444000
6.46501691	-15.86962000	-23.80444000
6.47001691	-15.86962000	-23.80444000
6.47501691	-15.86962000	-23.80444000
6.48001691	-15.86962000	-23.80444000
6.48501691	-15.86962000	-23.80444000
6.49001691	-15.86962000	-23.80444000
6.49501691	-15.86962000	-23.80444000
6.50001691	-15.86962000	-23.80444000
6.50501691	-15.86962000	-23.80444000
6.51001691	-15.86962000	-23.80444000
6.51501691	-15.86962000	-23.80444000
6.52001691	-15.86962000	-23.80444000
6.52501691	-15.86962000	-23.80444000
6.53001691	-15.86962000	-23.80444000
6.53501691	-15.86962000	-23.80444000
6.54001691	-15.86962000	-23.80444000
6.54501691	-15.86962000	-23.80444000
6.55001691	-15.86962000	-23.80444000
6.55501691	-15.86962000	-23.80444000
6.56001691	-15.86962000	-23.80444000
6.56501691	-15.86962000	-23.80444000
6.57001691	-15.86962000	-23.80444000
6.57501691	-15.86962000	-23.80444000
6.58001691	-15.86962000	-23.80444000
6.58501691	-15.86962000	-23.80444000
6.59001691	-15.86962000	-23.80444000
6.59501691	-15.86962000	-23.80444000
6.60001691	-15.86962000	-23.80444000
6.60501691	-15.86962000	-23.80444000
6.61001691	-15.86962000	-23.80444000
6.61501691	-15.86962000	-23.74340000
6.62001691	-15.86962000	-23.51451000
6.62501691	-15.86962000	-24.68947000
6.63001691	-15.86962000	-27.23777000
6.63501691	-15.86962000	-27.17673000
6.64001691	-15.86962000	-24.39955000
6.64501691	-15.86962000	-24.33851000
6.65001691	-15.86962000	-26.88680000
6.65501691	-15.86962000	-28.06177000
6.66001691	-15.86962000	-27.83288000
6.66501691	-15.86962000	-27.77184000
6.67001691	-15.86962000	-27.77184000
6.67501691	-15.86962000	-27.77184000
6.68001691	-15.86962000	-27.77184000
6.68501691	-15.86962000	-27.77184000
6.69001691	-15.86962000	-27.77184000
6.69501691	-15.86962000	-27.77184000
6.70001691	-15.86962000	-27.77184000
6.70501691	-15.86962000	-27.77184000
6.71001691	-15.86962000	-27.77184000
6.71501691	-15.86962000	-27.77184000
6.72001691	-15.86962000	-27.77184000
6.72501691	-15.86962000	-27.83288000
6.73001691	-15.86962000	-28.06177000
6.73501691	-15.86962000	-26.94784000
6.74001691	-15.86962000	-24.62844000
6.74501691	-15.86962000	-23.45347000
6.75001691	-15.86962000	-23.45347000
6.75501691	-15.86962000	-24.62844000
6.76001691	-15.86962000	-26.94784000
6.76501691	-15.86962000	-28.06177000
6.77001691	-15.86962000	-27.83288000
6.77501691	-15.86962000	-27.77184000
6.78001691	-15.86962000	-27.77184000
6.78501691	-15.86962000	-27.83288000
6.79001691	-15.86962000	-28.06177000
6.79501691	-15.86962000	-26.94784000
6.80001691	-15.86962000	-24.62844000
6.80501691	-15.86962000	-23.51451000
6.81001691	-15.86962000	-23.74340000
6.81501691	-15.86962000	-23.74340000
6.82001691	-15.86962000	-23.51451000
6.82501691	-15.86962000	-24.62844000
6.83001691	-15.86962000	-26.94784000
6.83501691	-15.86962000	-28.12280000
6.84001691	-15.86962000	-28.12280000
6.84501691	-15.86962000	-26.94784000
6.85001691	-15.86962000	-24.62844000
6.85501691	-15.86962000	-23.51451000
6.86001691	-15.86962000	-23.74340000
6.86501691	-15.86962000	-23.80444000
6.87001691	-15.86962000	-23.80444000
6.87501691	-15.86962000	-23.74340000
6.88001691	-15.86962000	-23.51451000
6.88501691	-15.86962000	-24.62844000
6.89001691	-15.86962000	-26.94784000
6.89501691	-15.86962000	-28.06177000
6.90001691	-15.86962000	-27.83288000
6.90501691	-15.86962000	-27.77184000
6.91001691	-15.86962000	-27.77184000
6.91501691	-15.86962000	-27.77184000
6.92001691	-15.86962000	-27.77184000
6.92501691	-15.86962000	-27.83288000
6.93001691	-15.86962000	-28.06177000
6.93501691	-15.80859000	-26.94784000
6.94001691	-15.57970000	-24.62844000
6.94501691	-16.75466000	-23.51451000
6.95001691	-19.30296000	-23.74340000
6.95501691	-19.30296000	-23.80444000
6.96001691	-16.75466000	-23.80444000
6.96501691	-15.57970000	-23.80444000
6.97001691	-15.80859000	-23.80444000
6.97501691	-15.86962000	-23.80444000
6.98001691	-15.86962000	-23.80444000
6.98501691	-15.86962000	-23.80444000
6.99001691	-15.86962000	-23.80444000
6.99501691	-15.86962000	-23.80444000
7.00001691	-15.86962000	-23.80444000
7.00501691	-15.86962000	-23.80444000
7.01001691	-15.86962000	-23.80444000
7.01501691	-15.86962000	-23.74340000
7.02001691	-15.86962000	-23.51451000
7.02501691	-15.86962000	-24.68947000
7.03001691	-15.86962000	-27.23777000
7.03501691	-15.86962000	-27.23777000
7.04001691	-15.86962000	-24.68947000
7.04501691	-15.86962000	-23.51451000
7.05001691	-15.86962000	-23.74340000
7.05501691	-15.86962000	-23.74340000
7.06001691	-15.86962000	-23.51451000
7.06501691	-15.86962000	-24.68947000
7.07001691	-15.86962000	-27.23777000
7.07501691	-15.86962000	-27.17673000
7.08001691	-15.86962000	-24.39955000
7.08501691	-15.86962000	-24.39955000
7.09001691	-15.86962000	-27.17673000
7.09501691	-15.86962000	-27.23777000
7.10001691	-15.86962000	-24.68947000
7.10501691	-15.86962000	-23.51451000
7.11001691	-15.86962000	-23.74340000
7.11501691	-15.86962000	-23.80444000
7.12001691	-15.86962000	-23.80444000
7.12501691	-15.80859000	-23.74340000
7.13001691	-15.57970000	-23.51451000
7.13501691	-16.75466000	-24.68947000
7.14001691	-19.30296000	-27.23777000
7.14501691	-19.30296000	-27.23777000
7.15001691	-16.75466000	-24.68947000
7.15501691	-15.57970000	-23.51451000
7.16001691	-15.80859000	-23.74340000
7.16501691	-15.86962000	-23.80444000
7.17001691	-15.86962000	-23.80444000
7.17501691	-15.86962000	-23.74340000
7.18001691	-15.86962000	-23.51451000
7.18501690	-15.86962000	-24.62844000
7.19001690	-15.86962000	-26.94784000
7.19501690	-15.86962000	-28.06177000
7.20001690	-15.86962000	-27.83288000
7.20501690	-15.86962000	-27.77184000
7.21001690	-15.86962000	-27.77184000
7.21501690	-15.86962000	-27.77184000
7.22001690	-15.86962000	-27.77184000
7.22501690	-15.86962000	-27.77184000
7.23001690	-15.86962000	-27.77184000
7.23501690	-15.86962000	-27.77184000
7.24001690	-15.86962000	-27.77184000
7.24501690	-15.86962000	-27.77184000
7.25001690	-15.86962000	-27.77184000
7.25501690	-15.86962000	-27.77184000
7.26001690	-15.86962000	-27.77184000
7.26501690	-15.86962000	-27.77184000
7.27001690	-15.86962000	-27.77184000
7.27501690	-15.86962000	-27.77184000
7.28001690	-15.86962000	-27.77184000
7.28501690	-15.86962000	-27.77184000
7.29001690	-15.86962000	-27.77184000
7.29501690	-15.86962000	-27.77184000
7.30001690	-15.86962000	-27.77184000
7.30501690	-15.86962000	-27.77184000
7.31001690	-15.86962000	-27.77184000
7.31501690	-15.86962000	-27.77184000
7.32001690	-15.86962000	-27.77184000
7.32501690	-15.86962000	-27.77184000
7.33001690	-15.86962000	-27.77184000
7.33501690	-15.86962000	-27.77184000
7.34001690	-15.86962000	-27.77184000
7.34501690	-15.86962000	-27.83288000
7.35001690	-15.86962000	-28.06177000
7.35501690	-15.86962000	-26.94784000
7.36001690	-15.86962000	-24.62844000
7.36501690	-15.86962000	-23.51451000
7.37001690	-15.86962000	-23.74340000
7.37501690	-15.86962000	-23.80444000
7.38001690	-15.86962000	-23.80444000
7.38501690	-15.86962000	-23.80444000
7.39001690	-15.86962000	-23.80444000
7.39501690	-15.86962000	-23.74340000
7.40001690	-15.86962000	-23.51451000
7.40501690	-15.80859000	-24.62844000
7.41001690	-15.57970000	-26.94784000
7.41501690	-16.75466000	-28.06177000
7.42001690	-19.30296000	-27.83288000
7.42501690	-19.30296000	-27.77184000
7.43001690	-16.75466000	-27.77184000
7.43501690	-15.57970000	-27.77184000
7.44001690	-15.80859000	-27.77184000
7.44501690	-15.86962000	-27.77184000
7.45001690	-15.86962000	-27.77184000
7.45501690	-15.86962000	-27.77184000
7.46001690	-15.86962000	-27.77184000
7.46501690	-15.86962000	-27.77184000
7.47001690	-15.86962000	-27.77184000
7.47501690	-15.80859000	-27.77184000
7.48001690	-15.57970000	-27.77184000
7.48501690	-16.69362000	-27.77184000
7.49001690	-19.01303000	-27.77184000
7.49501690	-20.12696000	-27.77184000
7.50001690	-19.89807000	-27.77184000
7.50501690	-19.89807000	-27.77184000
7.51001690	-20.12696000	-27.77184000
7.51501690	-19.01303000	-27.77184000
7.52001690	-16.69362000	-27.77184000
7.52501690	-15.51866000	-27.77184000
7.53001690	-15.51866000	-27.77184000
7.53501690	-16.75466000	-27.77184000
7.54001690	-19.30296000	-27.77184000
7.54501690	-19.24192000	-27.77184000
7.55001690	-16.46474000	-27.77184000
7.55501690	-16.46474000	-27.77184000
7.56001690	-19.24192000	-27.77184000
7.56501690	-19.24192000	-27.77184000
7.57001690	-16.46474000	-27.77184000
7.57501690	-16.40370000	-27.77184000
7.58001690	-18.95199000	-27.77184000
7.58501690	-20.18799000	-27.77184000
7.59001690	-20.18799000	-27.77184000
7.59501690	-18.95199000	-27.77184000
7.60001690	-16.40370000	-27.77184000
7.60501690	-16.46474000	-27.77184000
7.61001690	-19.24192000	-27.77184000
7.61501690	-19.24192000	-27.77184000
7.62001690	-16.46474000	-27.77184000
7.62501690	-16.46474000	-27.77184000
7.63001690	-19.24192000	-27.77184000
7.63501690	-19.30296000	-27.77184000
7.64001690	-16.75466000	-27.77184000
7.64501690	-15.51866000	-27.77184000
7.65001690	-15.51866000	-27.77184000
7.65501690	-16.69362000	-27.77184000
7.66001690	-19.01303000	-27.77184000
7.66501690	-20.12696000	-27.77184000
7.67001690	-19.89807000	-27.77184000
7.67501690	-19.83703000	-27.77184000
7.68001690	-19.83703000	-27.77184000
7.68501690	-19.89807000	-27.77184000
7.69001690	-20.12696000	-27.77184000
7.69501690	-18.95199000	-27.77184000
7.70001690	-16.40370000	-27.77184000
7.70501690	-16.40370000	-27.77184000
7.71001690	-18.95199000	-27.77184000
7.71501690	-20.12696000	-27.77184000
7.72001690	-19.89807000	-27.77184000
7.72501690	-19.83703000	-27.77184000
7.73001690	-19.83703000	-27.77184000
7.73501690	-19.83703000	-27.77184000
7.74001690	-19.83703000	-27.77184000
7.74501690	-19.83703000	-27.77184000
7.75001690	-19.83703000	-27.77184000
7.75501690	-19.83703000	-27.77184000
7.76001690	-19.83703000	-27.77184000
7.76501690	-19.83703000	-27.77184000
7.77001690	-19.83703000	-27.77184000
7.77501690	-19.83703000	-27.77184000
7.78001690	-19.83703000	-27.77184000
7.78501690	-19.83703000	-27.77184000
7.79001690	-19.83703000	-27.77184000
7.79501690	-19.83703000	-27.77184000
7.80001690	-19.83703000	-27.77184000
7.80501690	-19.83703000	-27.77184000
7.81001690	-19.83703000	-27.77184000
7.81501690	-19.83703000	-27.77184000
7.82001690	-19.83703000	-27.77184000
7.82501690	-19.83703000	-27.77184000
7.83001690	-19.83703000	-27.77184000
7.83501690	-19.83703000	-27.77184000
7.84001690	-19.83703000	-27.77184000
7.84501690	-19.83703000	-27.77184000
7.85001690	-19.83703000	-27.77184000
7.85501690	-19.83703000	-27.77184000
7.86001690	-19.83703000	-27.77184000
7.86501690	-19.83703000	-27.77184000
7.87001690	-19.83703000	-27.77184000
7.87501690	-19.83703000	-27.77184000
7.88001690	-19.83703000	-27.77184000
7.88501690	-19.83703000	-27.77184000
7.89001690	-19.83703000	-27.77184000
7.89501690	-19.83703000	-27.77184000
7.90001690	-19.83703000	-27.77184000
7.90501690	-19.83703000	-27.77184000
7.91001690	-19.83703000	-27.77184000
7.91501690	-19.83703000	-27.77184000
7.92001690	-19.83703000	-27.77184000
7.92501690	-19.83703000	-27.77184000
7.93001690	-19.83703000	-27.77184000
7.93501690	-19.89807000	-27.77184000
7.94001690	-20.12696000	-27.77184000
7.94501690	-18.95199000	-27.77184000
7.95001690	-16.40370000	-27.77184000
7.95501690	-16.46474000	-27.77184000
7.96001690	-19.24192000	-27.77184000
7.96501690	-19.24192000	-27.77184000
7.97001690	-16.46474000	-27.77184000
7.97501690	-16.40370000	-27.77184000
7.98001690	-18.95199000	-27.77184000
7.98501690	-20.12696000	-27.77184000
7.99001690	-19.89807000	-27.77184000
7.99501690	-19.83703000	-27.77184000
8.00001690	-19.83703000	-27.77184000
8.00501690	-19.83703000	-27.77184000
8.01001690	-19.83703000	-27.77184000
8.01501690	-19.83703000	-27.77184000
8.02001690	-19.83703000	-27.77184000
8.02501690	-19.83703000	-27.77184000
8.03001690	-19.83703000	-27.77184000
8.03501690	-19.83703000	-27.77184000
8.04001690	-19.83703000	-27.77184000
8.04501690	-19.83703000	-27.77184000
8.05001690	-19.83703000	-27.77184000
8.05501690	-19.83703000	-27.77184000
8.06001690	-19.83703000	-27.77184000
8.06501690	-19.83703000	-27.77184000
8.07001690	-19.83703000	-27.77184000
8.07501690	-19.83703000	-27.77184000
8.08001690	-19.83703000	-27.77184000
8.08501690	-19.83703000	-27.77184000
8.09001690	-19.83703000	-27.77184000
8.09501690	-19.83703000	-27.77184000
8.10001690	-19.83703000	-27.77184000
8.10501690	-19.83703000	-27.77184000
8.11001690	-19.83703000	-27.77184000
8.11501690	-19.83703000	-27.77184000
8.12001690	-19.83703000	-27.77184000
8.12501690	-19.83703000	-27.77184000
8.13001690	-19.83703000	-27.77184000
8.13501690	-19.83703000	-27.77184000
8.14001690	-19.83703000	-27.77184000
8.14501690	-19.83703000	-27.77184000
8.15001690	-19.83703000	-27.77184000
8.15501690	-19.83703000	-27.77184000
8.16001690	-19.83703000	-27.77184000
8.16501690	-19.83703000	-27.77184000
8.17001690	-19.83703000	-27.77184000
8.17501690	-19.83703000	-27.77184000
8.18001690	-19.83703000	-27.77184000
8.18501690	-19.83703000	-27.83288000
8.19001690	-19.83703000	-28.06177000
8.19501690	-19.83703000	-26.88680000
8.20001690	-19.83703000	-24.33851000
8.20501690	-19.83703000	-24.33851000
8.21001690	-19.83703000	-26.88680000
8.21501690	-19.83703000	-28.06177000
8.22001690	-19.83703000	-27.83288000
8.22501690	-19.83703000	-27.77184000
8.23001690	-19.83703000	-27.77184000
8.23501690	-19.83703000	-27.77184000
8.24001690	-19.83703000	-27.77184000
8.24501690	-19.83703000	-27.77184000
8.25001690	-19.83703000	-27.77184000
8.25501690	-19.83703000	-27.71080000
8.26001690	-19.83703000	-27.48192000
8.26501690	-19.83703000	-28.65688000
8.27001690	-19.83703000	-31.20517000
8.27501690	-19.83703000	-31.20517000
8.28001690	-19.83703000	-28.65688000
8.28501690	-19.83703000	-27.48192000
8.29001690	-19.83703000	-27.71080000
8.29501690	-19.83703000	-27.77184000
8.30001690	-19.83703000	-27.77184000
8.30501690	-19.83703000	-27.77184000
8.31001690	-19.83703000	-27.77184000
8.31501690	-19.83703000	-27.77184000
8.32001690	-19.83703000	-27.77184000
8.32501690	-19.83703000	-27.77184000
8.33001690	-19.83703000	-27.77184000
8.33501690	-19.83703000	-27.77184000
8.34001690	-19.83703000	-27.77184000
8.34501690	-19.83703000	-27.77184000
8.35001690	-19.83703000	-27.77184000
8.35501690	-19.83703000	-27.77184000
8.36001690	-19.83703000	-27.77184000
8.36501690	-19.83703000	-27.77184000
8.37001690	-19.83703000	-27.77184000
8.37501690	-19.89807000	-27.71080000
8.38001690	-20.12696000	-27.48192000
8.38501690	-18.95199000	-28.65688000
8.39001690	-16.40370000	-31.20517000
8.39501690	-16.40370000	-31.20517000
8.40001690	-18.95199000	-28.65688000
8.40501690	-20.12696000	-27.48192000
8.41001690	-19.89807000	-27.71080000
8.41501690	-19.83703000	-27.77184000
8.42001690	-19.83703000	-27.77184000
8.42501690	-19.83703000	-27.77184000
8.43001690	-19.83703000	-27.77184000
8.43501690	-19.83703000	-27.77184000
8.44001690	-19.83703000	-27.77184000
8.44501690	-19.83703000	-27.77184000
8.45001690	-19.83703000	-27.77184000
8.45501690	-19.83703000	-27.77184000
8.46001690	-19.83703000	-27.77184000
8.46501690	-19.83703000	-27.77184000
8.47001690	-19.83703000	-27.77184000
8.47501690	-19.83703000	-27.77184000
8.48001690	-19.83703000	-27.77184000
8.48501690	-19.83703000	-27.71080000
8.49001690	-19.83703000	-27.48192000
8.49501690	-19.83703000	-28.65688000
8.50001690	-19.83703000	-31.20517000
8.50501690	-19.83703000	-31.20517000
8.51001690	-19.83703000	-28.65688000
8.51501690	-19.83703000	-27.48192000
8.52001690	-19.83703000	-27.71080000
8.52501690	-19.83703000	-27.77184000
8.53001690	-19.83703000	-27.77184000
8.53501690	-19.83703000	-27.77184000
8.54001690	-19.83703000	-27.77184000
8.54501690	-19.83703000	-27.77184000
8.55001690	-19.83703000	-27.77184000
8.55501690	-19.83703000	-27.77184000
8.56001690	-19.83703000	-27.77184000
8.56501690	-19.83703000	-27.77184000
8.57001690	-19.83703000	-27.77184000
8.57501690	-19.83703000	-27.77184000
8.58001690	-19.83703000	-27.77184000
8.58501690	-19.83703000	-27.77184000
8.59001690	-19.83703000	-27.77184000
8.59501690	-19.83703000	-27.77184000
8.60001690	-19.83703000	-27.77184000
8.60501690	-19.83703000	-27.77184000
8.61001690	-19.83703000	-27.77184000
8.61501690	-19.83703000	-27.71080000
8.62001690	-19.83703000	-27.48192000
8.62501690	-19.83703000	-28.65688000
8.63001690	-19.83703000	-31.20517000
8.63501690	-19.83703000	-31.14414000
8.64001690	-19.83703000	-28.36695000
8.64501690	-19.83703000	-28.30592000
8.65001690	-19.83703000	-30.85421000
8.65501690	-19.83703000	-32.02917000
8.66001690	-19.83703000	-31.80028000
8.66501690	-19.83703000	-31.80028000
8.67001690	-19.83703000	-32.02917000
8.67501690	-19.83703000	-30.91525000
8.68001690	-19.83703000	-28.59584000
8.68501690	-19.83703000	-27.42088000
8.69001690	-19.83703000	-27.42088000
8.69501690	-19.83703000	-28.65688000
8.70001690	-19.83703000	-31.20517000
8.70501690	-19.83703000	-31.20517000
8.71001690	-19.83703000	-28.65688000
8.71501690	-19.83703000	-27.48192000
8.72001690	-19.83703000	-27.71080000
8.72501690	-19.83703000	-27.77184000
8.73001690	-19.83703000	-27.77184000
8.73501690	-19.83703000	-27.77184000
8.74001690	-19.83703000	-27.77184000
8.74501690	-19.83703000	-27.77184000
8.75001690	-19.83703000	-27.77184000
8.75501690	-19.83703000	-27.77184000
8.76001690	-19.83703000	-27.77184000
8.76501690	-19.83703000	-27.77184000
8.77001690	-19.83703000	-27.77184000
8.77501690	-19.83703000	-27.77184000
8.78001690	-19.83703000	-27.77184000
8.78501690	-19.83703000	-27.77184000
8.79001690	-19.83703000	-27.77184000
8.79501690	-19.83703000	-27.77184000
8.80001690	-19.83703000	-27.77184000
8.80501690	-19.83703000	-27.77184000
8.81001690	-19.83703000	-27.77184000
8.81501690	-19.83703000	-27.77184000
8.82001690	-19.83703000	-27.77184000
8.82501690	-19.83703000	-27.77184000
8.83001690	-19.83703000	-27.77184000
8.83501689	-19.83703000	-27.77184000
8.84001689	-19.83703000	-27.77184000
8.84501689	-19.83703000	-27.77184000
8.85001689	-19.83703000	-27.77184000
8.85501689	-19.83703000	-27.77184000
8.86001689	-19.83703000	-27.77184000
8.86501689	-19.83703000	-27.77184000
8.87001689	-19.83703000	-27.77184000
8.87501689	-19.83703000	-27.71080000
8.88001689	-19.83703000	-27.48192000
8.88501689	-19.83703000	-28.59584000
8.89001689	-19.83703000	-30.91525000
8.89501689	-19.83703000	-32.02917000
8.90001689	-19.83703000	-31.80028000
8.90501689	-19.83703000	-31.73925000
8.91001689	-19.83703000	-31.73925000
8.91501689	-19.83703000	-31.73925000
8.92001689	-19.83703000	-31.73925000
8.92501689	-19.83703000	-31.73925000
8.93001689	-19.83703000	-31.73925000
8.93501689	-19.83703000	-31.73925000
8.94001689	-19.83703000	-31.73925000
8.94501689	-19.83703000	-31.73925000
8.95001689	-19.83703000	-31.73925000
8.95501689	-19.83703000	-31.73925000
8.96001689	-19.83703000	-31.73925000
8.96501689	-19.83703000	-31.73925000
8.97001689	-19.83703000	-31.73925000
8.97501689	-19.83703000	-31.80028000
8.98001689	-19.83703000	-32.02917000
8.98501689	-19.83703000	-30.91525000
8.99001689	-19.83703000	-28.59584000
8.99501689	-19.83703000	-27.48192000
9.00001689	-19.83703000	-27.71080000
9.00501689	-19.83703000	-27.77184000
9.01001689	-19.83703000	-27.77184000
9.01501689	-19.83703000	-27.71080000
9.02001689	-19.83703000	-27.48192000
9.02501689	-19.83703000	-28.59584000
9.03001689	-19.83703000	-30.91525000
