Time	Channel A	Channel B
(us)	(mV)	(mV)

-1.00301899	3.96740600	7.93481200
-0.99801899	3.96740600	7.93481200
-0.99301899	3.96740600	7.93481200
-0.98801899	3.96740600	7.93481200
-0.98301899	3.90636900	7.93481200
-0.97801899	3.67748000	7.93481200
-0.97301899	4.85244300	7.93481200
-0.96801899	7.40073800	7.93481200
-0.96301899	7.40073800	7.93481200
-0.95801899	4.85244300	7.93481200
-0.95301899	3.67748000	7.93481200
-0.94801899	3.90636900	7.93481200
-0.94301899	3.96740600	7.93481200
-0.93801899	3.96740600	7.93481200
-0.93301899	3.90636900	7.99584900
-0.92801899	3.67748000	8.22473800
-0.92301899	4.85244300	7.11081200
-0.91801899	7.40073800	4.79140600
-0.91301899	7.40073800	3.61644300
-0.90801899	4.85244300	3.61644300
-0.90301899	3.67748000	4.79140600
-0.89801899	3.90636900	7.11081200
-0.89301899	3.96740600	8.28577500
-0.88801899	3.96740600	8.28577500
-0.88301899	3.96740600	7.11081200
-0.87801899	3.96740600	4.79140600
-0.87301899	3.96740600	3.61644300
-0.86801899	3.96740600	3.61644300
-0.86301899	3.96740600	4.79140600
-0.85801899	3.96740600	7.11081200
-0.85301899	3.96740600	8.22473800
-0.84801899	3.96740600	7.99584900
-0.84301899	3.96740600	7.93481200
-0.83801899	3.96740600	7.93481200
-0.83301899	3.96740600	7.93481200
-0.82801899	3.96740600	7.93481200
-0.82301899	3.96740600	7.93481200
-0.81801899	3.96740600	7.93481200
-0.81301899	3.96740600	7.93481200
-0.80801899	3.96740600	7.93481200
-0.80301899	3.96740600	7.93481200
-0.79801899	3.96740600	7.93481200
-0.79301899	3.96740600	7.93481200
-0.78801899	3.96740600	7.93481200
-0.78301899	3.90636900	7.93481200
-0.77801899	3.67748000	7.93481200
-0.77301899	4.85244300	7.93481200
-0.76801899	7.40073800	7.93481200
-0.76301899	7.33970100	7.93481200
-0.75801899	4.56251700	7.93481200
-0.75301899	4.56251700	7.93481200
-0.74801899	7.33970100	7.93481200
-0.74301899	7.33970100	7.93481200
-0.73801899	4.56251700	7.93481200
-0.73301899	4.50148000	7.93481200
-0.72801899	7.04977500	7.93481200
-0.72301899	8.28577500	7.93481200
-0.71801899	8.28577500	7.93481200
-0.71301899	7.11081200	7.93481200
-0.70801899	4.79140600	7.93481200
-0.70301899	3.67748000	7.93481200
-0.69801899	3.90636900	7.93481200
-0.69301899	3.96740600	7.93481200
-0.68801899	3.96740600	7.93481200
-0.68301899	3.90636900	7.93481200
-0.67801899	3.67748000	7.93481200
-0.67301899	4.79140600	7.93481200
-0.66801899	7.11081200	7.93481200
-0.66301899	8.22473800	7.93481200
-0.65801899	7.99584900	7.93481200
-0.65301899	7.99584900	7.93481200
-0.64801899	8.22473800	7.93481200
-0.64301899	7.11081200	7.93481200
-0.63801899	4.79140600	7.93481200
-0.63301899	3.67748000	7.93481200
-0.62801899	3.90636900	7.93481200
-0.62301899	3.96740600	7.93481200
-0.61801899	3.96740600	7.93481200
-0.61301899	3.96740600	7.93481200
-0.60801899	3.96740600	7.93481200
-0.60301899	3.96740600	7.93481200
-0.59801899	3.96740600	7.93481200
-0.59301899	3.96740600	7.93481200
-0.58801899	3.96740600	7.93481200
-0.58301899	3.96740600	7.93481200
-0.57801899	3.96740600	7.93481200
-0.57301899	3.90636900	7.93481200
-0.56801899	3.67748000	7.93481200
-0.56301899	4.85244300	7.93481200
-0.55801899	7.40073800	7.93481200
-0.55301899	7.33970100	7.93481200
-0.54801899	4.56251700	7.93481200
-0.54301899	4.56251700	7.93481200
-0.53801899	7.33970100	7.93481200
-0.53301899	7.33970100	7.93481200
-0.52801899	4.56251700	7.93481200
-0.52301899	4.56251700	7.93481200
-0.51801899	7.33970100	7.93481200
-0.51301899	7.33970100	7.93481200
-0.50801899	4.56251700	7.93481200
-0.50301899	4.50148000	7.93481200
-0.49801899	7.04977500	7.93481200
-0.49301899	8.28577500	7.93481200
-0.48801899	8.28577500	7.93481200
-0.48301899	7.04977500	7.93481200
-0.47801899	4.50148000	7.93481200
-0.47301899	4.56251700	7.93481200
-0.46801899	7.33970100	7.93481200
-0.46301899	7.33970100	7.93481200
-0.45801899	4.56251700	7.93481200
-0.45301899	4.50148000	7.93481200
-0.44801899	7.04977500	7.93481200
-0.44301899	8.28577500	7.93481200
-0.43801899	8.28577500	7.93481200
-0.43301899	7.04977500	7.93481200
-0.42801899	4.50148000	7.93481200
-0.42301899	4.56251700	7.93481200
-0.41801899	7.33970100	7.93481200
-0.41301900	7.33970100	7.93481200
-0.40801900	4.56251700	7.93481200
-0.40301900	4.56251700	7.93481200
-0.39801900	7.33970100	7.93481200
-0.39301900	7.33970100	7.93481200
-0.38801900	4.56251700	7.93481200
-0.38301900	4.56251700	7.93481200
-0.37801900	7.33970100	7.93481200
-0.37301900	7.40073800	7.93481200
-0.36801900	4.85244300	7.93481200
-0.36301900	3.67748000	7.93481200
-0.35801900	3.90636900	7.93481200
-0.35301900	3.90636900	7.93481200
-0.34801900	3.67748000	7.93481200
-0.34301900	4.85244300	7.93481200
-0.33801900	7.40073800	7.93481200
-0.33301900	7.33970100	7.93481200
-0.32801900	4.56251700	7.93481200
-0.32301900	4.56251700	7.93481200
-0.31801900	7.33970100	7.93481200
-0.31301900	7.40073800	7.93481200
-0.30801900	4.85244300	7.93481200
-0.30301900	3.61644300	7.93481200
-0.29801900	3.61644300	7.93481200
-0.29301900	4.85244300	7.93481200
-0.28801900	7.40073800	7.93481200
-0.28301900	7.33970100	7.93481200
-0.27801900	4.56251700	7.93481200
-0.27301900	4.56251700	7.93481200
-0.26801900	7.33970100	7.93481200
-0.26301900	7.33970100	7.93481200
-0.25801900	4.56251700	7.93481200
-0.25301900	4.50148000	7.93481200
-0.24801900	7.04977500	7.93481200
-0.24301900	8.28577500	7.93481200
-0.23801900	8.28577500	7.93481200
-0.23301900	7.11081200	7.93481200
-0.22801900	4.79140600	7.93481200
-0.22301900	3.67748000	7.93481200
-0.21801900	3.90636900	7.93481200
-0.21301900	3.96740600	7.93481200
-0.20801900	3.96740600	7.93481200
-0.20301900	3.96740600	7.93481200
-0.19801900	3.96740600	7.93481200
-0.19301900	3.90636900	7.93481200
-0.18801900	3.67748000	7.93481200
-0.18301900	4.85244300	7.93481200
-0.17801900	7.40073800	7.93481200
-0.17301900	7.40073800	7.93481200
-0.16801900	4.85244300	7.93481200
-0.16301900	3.67748000	7.93481200
-0.15801900	3.90636900	7.93481200
-0.15301900	3.90636900	7.93481200
-0.14801900	3.67748000	7.93481200
-0.14301900	4.79140600	7.93481200
-0.13801900	7.11081200	7.93481200
-0.13301900	8.28577500	7.93481200
-0.12801900	8.28577500	7.93481200
-0.12301900	7.04977500	7.93481200
-0.11801900	4.50148000	7.93481200
-0.11301900	4.44044300	7.93481200
-0.10801900	6.75985000	7.93481200
-0.10301900	8.98770000	7.99584900
-0.09801900	10.84933000	8.22473800
-0.09301900	12.90933000	7.11081200
-0.08801900	14.51155000	4.79140600
-0.08301900	17.70074000	3.73851700
-0.07801900	21.62236000	4.19629500
-0.07301900	25.86444000	3.14340600
-0.06801900	29.32829000	0.82399970
-0.06301900	34.62325000	-0.22888880
-0.05801900	40.40651000	0.22888880
-0.05301900	46.81539000	-0.82399970
-0.04801900	52.36976000	-3.14340600
-0.04301900	58.77865000	-4.25733200
-0.03801900	64.56190000	-4.02844300
-0.03301900	69.79583000	-3.96740600
-0.02801900	73.04604000	-3.96740600
-0.02301900	78.34101000	-3.96740600
-0.01801900	84.35316000	-3.96740600
-0.01301900	89.64812000	-3.96740600
-0.00801900	92.88307000	-3.96740600
-0.00301900	98.17804000	-3.96740600
0.00198100	104.19020000	-3.96740600
0.00698100	109.48510000	-3.96740600
0.01198100	112.72010000	-3.96740600
0.01698100	118.01510000	-3.96740600
0.02198100	124.02720000	-3.96740600
0.02698100	129.38320000	-4.02844300
0.03198100	132.84710000	-4.25733200
0.03698100	136.96710000	-3.08236900
0.04198100	140.44620000	-0.53407390
0.04698100	145.80220000	-0.59511090
0.05198100	151.81430000	-3.37229500
0.05698100	157.17030000	-3.37229500
0.06198100	160.63420000	-0.59511090
0.06698100	164.81520000	-0.53407390
0.07198100	168.50790000	-3.08236900
0.07698100	172.75000000	-4.25733200
0.08198100	176.44270000	-4.02844300
0.08698100	180.68480000	-3.96740600
0.09198100	184.37760000	-3.96740600
0.09698100	188.61960000	-3.96740600
0.10198100	192.31240000	-3.96740600
0.10698100	196.55450000	-3.90636900
0.11198100	200.24720000	-3.67748000
0.11698100	204.55030000	-4.79140600
0.12198100	208.47190000	-7.11081200
0.12698100	211.66110000	-8.22473800
0.13198100	213.27860000	-7.99584900
0.13698100	215.35390000	-7.99584900
0.14198100	217.20020000	-8.22473800
0.14698100	219.26020000	-7.11081200
0.15198100	220.86240000	-4.79140600
0.15698100	224.15840000	-3.67748000
0.16198100	228.56840000	-3.90636900
0.16698100	230.73520000	-3.96740600
0.17198100	230.27740000	-3.96740600
0.17698100	230.15530000	-4.02844300
0.18198100	230.15530000	-4.25733200
0.18698100	230.21640000	-3.14340600
0.19198100	230.44530000	-0.82399970
0.19698100	229.39240000	0.28992580
0.20198100	227.30180000	0.06103702
0.20698100	225.13500000	-0.06103702
0.21198100	223.27340000	-0.28992580
0.21698100	221.21340000	0.82399970
0.22198100	219.61120000	3.14340600
0.22698100	216.36100000	4.25733200
0.23198100	212.19520000	4.02844300
0.23698100	209.00600000	3.90636900
0.24198100	207.63270000	3.67748000
0.24698100	204.44350000	4.85244300
0.25198100	200.29300000	7.40073800
0.25698100	197.04280000	7.40073800
0.26198100	195.44050000	4.85244300
0.26698100	193.31950000	3.67748000
0.27198100	191.22900000	3.90636900
0.27698100	190.29820000	3.96740600
0.28198100	190.98480000	3.96740600
0.28698100	188.87900000	3.96740600
0.29198100	184.46910000	3.96740600
0.29698100	181.12730000	3.96740600
0.30198100	179.26570000	3.96740600
0.30698100	178.33490000	3.96740600
0.31198100	178.79270000	3.96740600
0.31698100	177.80080000	4.02844300
0.32198100	175.71030000	4.25733200
0.32698100	173.54350000	3.14340600
0.33198100	171.68190000	0.82399970
0.33698100	169.51500000	-0.28992580
0.34198100	167.42450000	-0.06103702
0.34698100	166.37160000	0.00000000
0.35198100	166.60050000	0.00000000
0.35698100	166.72260000	0.00000000
0.36198100	166.95150000	0.00000000
0.36698100	165.83760000	0.00000000
0.37198100	163.51820000	0.00000000
0.37698100	162.46530000	0.00000000
0.38198100	162.92310000	0.00000000
0.38698100	161.87020000	0.00000000
0.39198100	159.55080000	0.00000000
0.39698100	158.43680000	0.00000000
0.40198100	158.66570000	0.00000000
0.40698100	158.72680000	-0.06103702
0.41198100	158.72680000	-0.28992580
0.41698100	158.72680000	0.82399970
0.42198100	158.72680000	3.14340600
0.42698100	158.72680000	4.25733200
0.43198100	158.72680000	4.02844300
0.43698100	158.78780000	3.96740600
0.44198100	159.01670000	3.96740600
0.44698100	157.90280000	3.96740600
0.45198100	155.58340000	3.96740600
0.45698100	154.46940000	3.96740600
0.46198100	154.69830000	3.96740600
0.46698100	154.75940000	3.96740600
0.47198100	154.75940000	3.96740600
0.47698100	154.75940000	3.96740600
0.48198100	154.75940000	3.96740600
0.48698100	154.75940000	3.96740600
0.49198100	154.75940000	3.96740600
0.49698100	154.82040000	3.96740600
0.50198100	155.04930000	3.96740600
0.50698100	153.93530000	3.96740600
0.51198100	151.61590000	3.96740600
0.51698100	150.50200000	3.96740600
0.52198100	150.73090000	3.96740600
0.52698100	150.79190000	3.96740600
0.53198100	150.79190000	3.96740600
0.53698100	150.79190000	3.96740600
0.54198100	150.79190000	3.96740600
0.54698100	150.79190000	3.96740600
0.55198100	150.79190000	3.96740600
0.55698100	150.79190000	3.96740600
0.56198100	150.79190000	3.96740600
0.56698100	150.85300000	3.96740600
0.57198100	151.08190000	3.96740600
0.57698100	149.96790000	3.96740600
0.58198100	147.64850000	3.96740600
0.58698100	146.53460000	3.96740600
0.59198100	146.76350000	3.96740600
0.59698100	146.88560000	3.96740600
0.60198100	147.11450000	3.96740600
0.60698100	146.00050000	3.96740600
0.61198100	143.68110000	3.96740600
0.61698100	142.56720000	3.90636900
0.62198100	142.79610000	3.67748000
0.62698100	142.85710000	4.85244300
0.63198100	142.85710000	7.40073800
0.63698100	142.85710000	7.33970100
0.64198100	142.85710000	4.56251700
0.64698100	142.85710000	4.56251700
0.65198100	142.85710000	7.33970100
0.65698100	142.85710000	7.40073800
0.66198100	142.85710000	4.85244300
0.66698100	142.85710000	3.67748000
0.67198100	142.85710000	3.90636900
0.67698100	142.91820000	3.96740600
0.68198100	143.14710000	3.96740600
0.68698100	142.03310000	3.96740600
0.69198100	139.69850000	3.96740600
0.69698100	138.58450000	3.96740600
0.70198100	138.81340000	3.96740600
0.70698100	138.87450000	3.90636900
0.71198100	138.87450000	3.67748000
0.71698100	138.93550000	4.85244300
0.72198100	139.16440000	7.40073800
0.72698100	138.05050000	7.40073800
0.73198100	135.73110000	4.85244300
0.73698100	134.61710000	3.67748000
0.74198100	134.84600000	3.90636900
0.74698100	134.90710000	3.96740600
0.75198100	134.90710000	3.96740600
0.75698100	134.90710000	3.96740600
0.76198100	134.90710000	3.96740600
0.76698100	134.90710000	3.96740600
0.77198100	134.90710000	3.96740600
0.77698100	134.96810000	3.96740600
0.78198100	135.19700000	3.96740600
0.78698100	134.08310000	3.96740600
0.79198100	131.76370000	3.96740600
0.79698100	130.64970000	3.96740600
0.80198100	130.87860000	3.96740600
0.80698100	130.93970000	3.90636900
0.81198100	130.93970000	3.67748000
0.81698100	130.93970000	4.79140600
0.82198100	130.93970000	7.11081200
0.82698100	131.00070000	8.28577500
0.83198100	131.22960000	8.28577500
0.83698100	130.11560000	7.04977500
0.84198100	127.79630000	4.50148000
0.84698100	126.68230000	4.50148000
0.85198100	126.91120000	7.04977500
0.85698100	126.97230000	8.28577500
0.86198100	126.97230000	8.28577500
0.86698100	126.97230000	7.11081200
0.87198100	126.97230000	4.79140600
0.87698100	126.97230000	3.67748000
0.88198100	126.97230000	3.90636900
0.88698100	126.97230000	3.96740600
0.89198100	126.97230000	3.96740600
0.89698100	127.03330000	3.96740600
0.90198100	127.26220000	3.96740600
0.90698100	126.14820000	3.96740600
0.91198100	123.82880000	3.96740600
0.91698100	122.71490000	3.96740600
0.92198100	122.94380000	3.96740600
0.92698100	123.00480000	3.96740600
0.93198100	123.00480000	3.96740600
0.93698100	123.00480000	3.90636900
0.94198100	123.00480000	3.67748000
0.94698100	123.06590000	4.79140600
0.95198100	123.29480000	7.11081200
0.95698100	122.18080000	8.22473800
0.96198100	119.86140000	7.99584900
0.96698100	118.74750000	7.93481200
0.97198100	118.97640000	7.93481200
0.97698100	119.03740000	7.99584900
0.98198100	119.03740000	8.22473800
0.98698100	119.03740000	7.11081200
0.99198100	119.03740000	4.79140600
0.99698100	119.03740000	3.61644300
1.00198100	119.03740000	3.61644300
1.00698100	119.03740000	4.79140600
1.01198100	119.03740000	7.11081200
1.01698100	119.03740000	8.22473800
1.02198100	119.03740000	7.99584900
1.02698100	119.09850000	7.93481200
1.03198100	119.32740000	7.93481200
1.03698100	118.21340000	7.93481200
1.04198100	115.89400000	7.93481200
1.04698100	114.78010000	7.93481200
1.05198100	115.00900000	7.93481200
1.05698100	115.13110000	7.93481200
1.06198100	115.36000000	7.93481200
1.06698100	114.18500000	7.93481200
1.07198100	111.63670000	7.93481200
1.07698100	111.63670000	7.93481200
1.08198100	114.18500000	7.93481200
1.08698100	115.42100000	7.93481200
1.09198100	115.42100000	7.93481200
1.09698100	114.24600000	7.93481200
1.10198100	111.92660000	7.93481200
1.10698100	110.81270000	7.93481200
1.11198100	111.04160000	7.93481200
1.11698100	111.10260000	7.93481200
1.12198100	111.10260000	7.93481200
1.12698100	111.10260000	7.93481200
1.13198100	111.10260000	7.93481200
1.13698100	111.10260000	7.93481200
1.14198100	111.10260000	7.93481200
1.14698100	111.10260000	7.93481200
1.15198100	111.10260000	7.93481200
1.15698100	111.16370000	7.93481200
1.16198100	111.39250000	7.93481200
1.16698100	110.21760000	7.93481200
1.17198100	107.66930000	7.93481200
1.17698100	107.73030000	7.93481200
1.18198100	110.50750000	7.93481200
1.18698100	110.56860000	7.93481200
1.19198100	108.02030000	7.93481200
1.19698100	106.84530000	7.93481200
1.20198100	107.07420000	7.93481200
1.20698100	107.13520000	7.93481200
1.21198100	107.13520000	7.93481200
1.21698100	107.19630000	7.93481200
1.22198100	107.42510000	7.93481200
1.22698100	106.25020000	7.93481200
1.23198099	103.70190000	7.93481200
1.23698099	103.76290000	7.93481200
1.24198099	106.54010000	7.93481200
1.24698099	106.60120000	7.93481200
1.25198099	104.05280000	7.93481200
1.25698099	102.87790000	7.93481200
1.26198099	103.10680000	7.93481200
1.26698099	103.16780000	7.93481200
1.27198099	103.16780000	7.93481200
1.27698099	103.16780000	7.93481200
1.28198099	103.16780000	7.93481200
1.28698099	103.16780000	7.93481200
1.29198099	103.16780000	7.93481200
1.29698099	103.16780000	7.93481200
1.30198099	103.16780000	7.93481200
1.30698099	103.16780000	7.93481200
1.31198099	103.16780000	7.93481200
1.31698099	103.16780000	7.93481200
1.32198099	103.16780000	7.93481200
1.32698099	103.16780000	7.93481200
1.33198099	103.16780000	7.93481200
1.33698099	103.22890000	7.93481200
1.34198099	103.45770000	7.93481200
1.34698099	102.34380000	7.93481200
1.35198099	100.02440000	7.93481200
1.35698099	98.91048000	7.93481200
1.36198099	99.13937000	7.93481200
1.36698099	99.20041000	7.93481200
1.37198099	99.20041000	7.93481200
1.37698099	99.20041000	7.93481200
1.38198099	99.20041000	7.93481200
1.38698099	99.20041000	7.93481200
1.39198099	99.20041000	7.93481200
1.39698099	99.26145000	7.93481200
1.40198099	99.49034000	7.93481200
1.40698099	98.37641000	7.93481200
1.41198099	96.05700000	7.93481200
1.41698099	94.94308000	7.93481200
1.42198099	95.17197000	7.93481200
1.42698099	95.23300000	7.93481200
1.43198099	95.23300000	7.93481200
1.43698099	95.23300000	7.87377500
1.44198099	95.23300000	7.64488600
1.44698099	95.23300000	8.81984900
1.45198099	95.23300000	11.36814000
1.45698099	95.23300000	11.36814000
1.46198099	95.23300000	8.81984900
1.46698099	95.23300000	7.64488600
1.47198099	95.23300000	7.87377500
1.47698099	95.23300000	7.93481200
1.48198099	95.23300000	7.93481200
1.48698099	95.23300000	7.93481200
1.49198099	95.23300000	7.93481200
1.49698099	95.23300000	7.93481200
1.50198099	95.23300000	7.93481200
1.50698099	95.29404000	7.93481200
1.51198099	95.52293000	7.93481200
1.51698099	94.34796000	7.93481200
1.52198099	91.79967000	7.93481200
1.52698099	91.86070000	7.93481200
1.53198099	94.63789000	7.93481200
1.53698099	94.69893000	7.93481200
1.54198099	92.15063000	7.93481200
1.54698099	90.97568000	7.93481200
1.55198099	91.20457000	7.93481200
1.55698099	91.26560000	7.93481200
1.56198099	91.26560000	7.93481200
1.56698099	91.26560000	7.93481200
1.57198099	91.26560000	7.93481200
1.57698099	91.26560000	7.93481200
1.58198099	91.26560000	7.93481200
1.58698099	91.32664000	7.93481200
1.59198099	91.55552000	7.93481200
1.59698099	90.44160000	7.93481200
1.60198099	88.12219000	7.93481200
1.60698099	87.00826000	7.93481200
1.61198099	87.23715000	7.93481200
1.61698099	87.29819000	7.93481200
1.62198099	87.29819000	7.93481200
1.62698099	87.29819000	7.93481200
1.63198099	87.29819000	7.93481200
1.63698099	87.29819000	7.93481200
1.64198099	87.29819000	7.93481200
1.64698099	87.29819000	7.93481200
1.65198099	87.29819000	7.93481200
1.65698099	87.29819000	7.93481200
1.66198099	87.29819000	7.93481200
1.66698099	87.29819000	7.93481200
1.67198099	87.29819000	7.93481200
1.67698099	87.29819000	7.93481200
1.68198099	87.29819000	7.93481200
1.68698099	87.35923000	7.93481200
1.69198099	87.58812000	7.93481200
1.69698099	86.47419000	7.93481200
1.70198099	84.15479000	7.93481200
1.70698099	83.04086000	7.93481200
1.71198099	83.26974000	7.93481200
1.71698099	83.33078000	7.93481200
1.72198099	83.33078000	7.93481200
1.72698099	83.33078000	7.93481200
1.73198099	83.33078000	7.93481200
1.73698099	83.33078000	7.93481200
1.74198099	83.33078000	7.93481200
1.74698099	83.33078000	7.93481200
1.75198099	83.33078000	7.93481200
1.75698099	83.33078000	7.93481200
1.76198099	83.33078000	7.93481200
1.76698099	83.39182000	7.93481200
1.77198099	83.62070000	7.93481200
1.77698099	82.50678000	7.93481200
1.78198099	80.18738000	7.93481200
1.78698099	79.07346000	7.93481200
1.79198099	79.30235000	7.93481200
1.79698099	79.36338000	7.93481200
1.80198099	79.36338000	7.93481200
1.80698099	79.36338000	7.93481200
1.81198099	79.36338000	7.93481200
1.81698099	79.36338000	7.93481200
1.82198099	79.36338000	7.93481200
1.82698099	79.36338000	7.93481200
1.83198099	79.36338000	7.93481200
1.83698099	79.36338000	7.93481200
1.84198099	79.36338000	7.93481200
1.84698099	79.36338000	7.93481200
1.85198099	79.36338000	7.93481200
1.85698099	79.42442000	7.93481200
1.86198099	79.65331000	7.93481200
1.86698099	78.47834000	7.93481200
1.87198099	75.93005000	7.93481200
1.87698099	75.99108000	7.93481200
1.88198099	78.76827000	7.93481200
1.88698099	78.76827000	7.93481200
1.89198099	75.99108000	7.93481200
1.89698099	75.99108000	7.93481200
1.90198099	78.76827000	7.93481200
1.90698099	78.82931000	7.93481200
1.91198099	76.28101000	7.93481200
1.91698099	75.10605000	7.93481200
1.92198099	75.33494000	7.93481200
1.92698099	75.39597000	7.93481200
1.93198099	75.39597000	7.93481200
1.93698099	75.39597000	7.93481200
1.94198099	75.39597000	7.93481200
1.94698099	75.39597000	7.93481200
1.95198099	75.39597000	7.93481200
1.95698099	75.39597000	7.93481200
1.96198099	75.39597000	7.93481200
1.96698099	75.39597000	7.93481200
1.97198099	75.39597000	7.93481200
1.97698099	75.45701000	7.93481200
1.98198099	75.68590000	7.93481200
1.98698099	74.57197000	7.93481200
1.99198099	72.25256000	7.93481200
1.99698099	71.13864000	7.93481200
2.00198099	71.36753000	7.93481200
2.00698099	71.42857000	7.93481200
2.01198099	71.42857000	7.93481200
2.01698099	71.42857000	7.93481200
2.02198099	71.42857000	7.93481200
2.02698099	71.42857000	7.93481200
2.03198099	71.42857000	7.93481200
2.03698099	71.42857000	7.93481200
2.04198099	71.42857000	7.93481200
2.04698099	71.42857000	7.93481200
2.05198099	71.42857000	7.93481200
2.05698099	71.42857000	7.93481200
2.06198099	71.42857000	7.93481200
2.06698099	71.42857000	7.93481200
2.07198099	71.42857000	7.93481200
2.07698099	71.42857000	7.93481200
2.08198099	71.42857000	7.93481200
2.08698099	71.42857000	7.93481200
2.09198099	71.42857000	7.93481200
2.09698099	71.42857000	7.93481200
2.10198099	71.42857000	7.93481200
2.10698099	71.42857000	7.93481200
2.11198099	71.42857000	7.93481200
2.11698099	71.42857000	7.99584900
2.12198099	71.42857000	8.22473800
2.12698099	71.48961000	7.04977500
2.13198099	71.71850000	4.50148000
2.13698099	70.60457000	4.50148000
2.14198099	68.26991000	7.04977500
2.14698099	67.09494000	8.22473800
2.15198099	67.09494000	7.99584900
2.15698099	68.33094000	7.99584900
2.16198099	70.89449000	8.22473800
2.16698099	70.89449000	7.04977500
2.17198099	68.33094000	4.50148000
2.17698099	67.15598000	4.50148000
2.18198099	67.38486000	7.04977500
2.18698099	67.44590000	8.22473800
2.19198099	67.44590000	7.99584900
2.19698099	67.44590000	7.93481200
2.20198099	67.44590000	7.93481200
2.20698099	67.44590000	7.93481200
2.21198099	67.44590000	7.93481200
2.21698099	67.50694000	7.93481200
2.22198099	67.73582000	7.93481200
2.22698099	66.56087000	7.93481200
2.23198099	64.01257000	7.93481200
2.23698099	64.01257000	7.93481200
2.24198099	66.56087000	7.93481200
2.24698099	67.79687000	7.93481200
2.25198099	67.79687000	7.93481200
2.25698099	66.62190000	7.93481200
2.26198099	64.30249000	7.93481200
2.26698099	63.18857000	7.93481200
2.27198099	63.41746000	7.93481200
2.27698099	63.47850000	7.93481200
2.28198099	63.47850000	7.93481200
2.28698099	63.47850000	7.93481200
2.29198099	63.47850000	7.93481200
2.29698099	63.47850000	7.93481200
2.30198099	63.47850000	7.93481200
2.30698099	63.47850000	7.93481200
2.31198099	63.47850000	7.93481200
2.31698099	63.47850000	7.93481200
2.32198099	63.47850000	7.93481200
2.32698099	63.47850000	7.93481200
2.33198099	63.47850000	7.93481200
2.33698099	63.47850000	7.93481200
2.34198099	63.47850000	7.93481200
2.34698099	63.47850000	7.93481200
2.35198099	63.47850000	7.93481200
2.35698099	63.47850000	7.93481200
2.36198099	63.47850000	7.93481200
2.36698099	63.53953000	7.93481200
2.37198099	63.76842000	7.93481200
2.37698099	62.59346000	7.93481200
2.38198099	60.04517000	7.93481200
2.38698099	60.10620000	7.93481200
2.39198099	62.88339000	7.93481200
2.39698099	62.94442000	7.93481200
2.40198099	60.39613000	7.93481200
2.40698099	59.22116000	7.93481200
2.41198099	59.45005000	7.93481200
2.41698099	59.51109000	7.93481200
2.42198099	59.51109000	7.93481200
2.42698099	59.51109000	7.93481200
2.43198099	59.51109000	7.93481200
2.43698099	59.51109000	7.93481200
2.44198099	59.51109000	7.93481200
2.44698099	59.51109000	7.93481200
2.45198099	59.51109000	7.93481200
2.45698099	59.51109000	7.93481200
2.46198099	59.51109000	7.93481200
2.46698099	59.51109000	7.93481200
2.47198099	59.51109000	7.93481200
2.47698099	59.57213000	7.93481200
2.48198099	59.80102000	7.93481200
2.48698099	58.62605000	7.93481200
2.49198099	56.07775000	7.93481200
2.49698099	56.07775000	7.93481200
2.50198099	58.62605000	7.93481200
2.50698099	59.86205000	7.99584900
2.51198099	59.86205000	8.22473800
2.51698099	58.62605000	7.04977500
2.52198099	56.07775000	4.50148000
2.52698099	56.13879000	4.56251700
2.53198099	58.91598000	7.33970100
2.53698099	58.97702000	7.40073800
2.54198099	56.42872000	4.85244300
2.54698099	55.25376000	3.67748000
2.55198099	55.48264000	3.90636900
2.55698099	55.54368000	3.90636900
2.56198099	55.54368000	3.67748000
2.56698099	55.54368000	4.79140600
2.57198099	55.54368000	7.11081200
2.57698099	55.54368000	8.22473800
2.58198099	55.54368000	7.99584900
2.58698099	55.54368000	7.99584900
2.59198099	55.54368000	8.22473800
2.59698099	55.54368000	7.04977500
2.60198099	55.54368000	4.50148000
2.60698099	55.54368000	4.50148000
2.61198099	55.54368000	7.04977500
2.61698099	55.54368000	8.22473800
2.62198099	55.54368000	7.99584900
2.62698099	55.54368000	7.93481200
2.63198099	55.54368000	7.93481200
2.63698099	55.60472000	7.93481200
2.64198099	55.83361000	7.93481200
2.64698099	54.65865000	7.93481200
2.65198099	52.11035000	7.93481200
2.65698099	52.11035000	7.93481200
2.66198099	54.65865000	7.93481200
2.66698099	55.83361000	7.93481200
2.67198099	55.60472000	7.93481200
2.67698099	55.60472000	7.93481200
2.68198099	55.83361000	7.93481200
2.68698099	54.71968000	7.93481200
2.69198099	52.40028000	7.93481200
2.69698099	51.28635000	7.93481200
2.70198099	51.51524000	7.93481200
2.70698099	51.57627000	7.93481200
2.71198099	51.57627000	7.93481200
2.71698099	51.57627000	7.93481200
2.72198099	51.57627000	7.93481200
2.72698099	51.57627000	7.93481200
2.73198099	51.57627000	7.93481200
2.73698099	51.57627000	7.93481200
2.74198099	51.57627000	7.93481200
2.74698099	51.57627000	7.93481200
2.75198099	51.57627000	7.93481200
2.75698099	51.57627000	7.93481200
2.76198099	51.57627000	7.93481200
2.76698099	51.57627000	7.93481200
2.77198099	51.57627000	7.93481200
2.77698099	51.57627000	7.93481200
2.78198099	51.57627000	7.93481200
2.78698099	51.57627000	7.93481200
2.79198099	51.57627000	7.93481200
2.79698099	51.57627000	7.99584900
2.80198099	51.57627000	8.22473800
2.80698099	51.57627000	7.04977500
2.81198099	51.57627000	4.50148000
2.81698099	51.63731000	4.50148000
2.82198099	51.86620000	7.04977500
2.82698099	50.69124000	8.22473800
2.83198099	48.14294000	7.99584900
2.83698099	48.20398000	7.93481200
2.84198099	50.98117000	7.93481200
2.84698099	50.98117000	7.93481200
2.85198099	48.20398000	7.93481200
2.85698099	48.14294000	7.93481200
2.86198099	50.69124000	7.93481200
2.86698099	51.92724000	7.93481200
2.87198099	51.92724000	7.93481200
2.87698099	50.75228000	7.93481200
2.88198098	48.43287000	7.93481200
2.88698098	47.31895000	7.93481200
2.89198098	47.54784000	7.93481200
2.89698098	47.60887000	7.93481200
2.90198098	47.60887000	7.93481200
2.90698098	47.60887000	7.93481200
2.91198098	47.60887000	7.93481200
2.91698098	47.60887000	7.93481200
2.92198098	47.60887000	7.93481200
2.92698098	47.60887000	7.93481200
2.93198098	47.60887000	7.93481200
2.93698098	47.60887000	7.99584900
2.94198098	47.60887000	8.22473800
2.94698098	47.60887000	7.04977500
2.95198098	47.60887000	4.50148000
2.95698098	47.60887000	4.50148000
2.96198098	47.60887000	7.04977500
2.96698098	47.60887000	8.28577500
2.97198098	47.60887000	8.28577500
2.97698098	47.60887000	7.04977500
2.98198098	47.60887000	4.50148000
2.98698098	47.60887000	4.56251700
2.99198098	47.60887000	7.33970100
2.99698098	47.60887000	7.40073800
3.00198098	47.60887000	4.85244300
3.00698098	47.60887000	3.61644300
3.01198098	47.60887000	3.61644300
3.01698098	47.60887000	4.79140600
3.02198098	47.60887000	7.11081200
3.02698098	47.60887000	8.22473800
3.03198098	47.60887000	7.99584900
3.03698098	47.60887000	7.93481200
3.04198098	47.60887000	7.93481200
3.04698098	47.66991000	7.93481200
3.05198098	47.89880000	7.93481200
3.05698098	46.78487000	7.93481200
3.06198098	44.46547000	7.93481200
3.06698098	43.35154000	7.93481200
3.07198098	43.58043000	7.93481200
3.07698098	43.64147000	7.93481200
3.08198098	43.64147000	7.93481200
3.08698098	43.64147000	7.93481200
3.09198098	43.64147000	7.93481200
3.09698098	43.64147000	7.93481200
3.10198098	43.64147000	7.93481200
3.10698098	43.64147000	7.93481200
3.11198098	43.64147000	7.93481200
3.11698098	43.64147000	7.93481200
3.12198098	43.64147000	7.93481200
3.12698098	43.64147000	7.93481200
3.13198098	43.64147000	7.93481200
3.13698098	43.64147000	7.93481200
3.14198098	43.64147000	7.93481200
3.14698098	43.64147000	7.93481200
3.15198098	43.64147000	7.93481200
3.15698098	43.64147000	7.93481200
3.16198098	43.64147000	7.93481200
3.16698098	43.64147000	7.93481200
3.17198098	43.64147000	7.93481200
3.17698098	43.64147000	7.93481200
3.18198098	43.64147000	7.93481200
3.18698098	43.64147000	7.93481200
3.19198098	43.64147000	7.93481200
3.19698098	43.70250000	7.93481200
3.20198098	43.93139000	7.93481200
3.20698098	42.75643000	7.93481200
3.21198098	40.20813000	7.93481200
3.21698098	40.26917000	7.93481200
3.22198098	43.04636000	7.93481200
3.22698098	43.10739000	7.93481200
3.23198098	40.55910000	7.93481200
3.23698098	39.38414000	7.93481200
3.24198098	39.61302000	7.93481200
3.24698098	39.67406000	7.93481200
3.25198098	39.67406000	7.93481200
3.25698098	39.67406000	7.93481200
3.26198098	39.67406000	7.93481200
3.26698098	39.67406000	7.93481200
3.27198098	39.67406000	7.93481200
3.27698098	39.67406000	7.93481200
3.28198098	39.67406000	7.93481200
3.28698098	39.67406000	7.93481200
3.29198098	39.67406000	7.93481200
3.29698098	39.67406000	7.93481200
3.30198098	39.67406000	7.93481200
3.30698098	39.67406000	7.93481200
3.31198098	39.67406000	7.93481200
3.31698098	39.67406000	7.93481200
3.32198098	39.67406000	7.93481200
3.32698098	39.67406000	7.93481200
3.33198098	39.67406000	7.93481200
3.33698098	39.67406000	7.93481200
3.34198098	39.67406000	7.93481200
3.34698098	39.67406000	7.93481200
3.35198098	39.67406000	7.93481200
3.35698098	39.67406000	7.93481200
3.36198098	39.67406000	7.93481200
3.36698098	39.67406000	7.93481200
3.37198098	39.67406000	7.93481200
3.37698098	39.67406000	7.93481200
3.38198098	39.67406000	7.93481200
3.38698098	39.67406000	7.93481200
3.39198098	39.67406000	7.93481200
3.39698098	39.67406000	7.93481200
3.40198098	39.67406000	7.93481200
3.40698098	39.67406000	7.93481200
3.41198098	39.67406000	7.93481200
3.41698098	39.67406000	7.93481200
3.42198098	39.67406000	7.93481200
3.42698098	39.67406000	7.93481200
3.43198098	39.67406000	7.93481200
3.43698098	39.67406000	7.93481200
3.44198098	39.67406000	7.93481200
3.44698098	39.67406000	7.93481200
3.45198098	39.67406000	7.93481200
3.45698098	39.73510000	7.93481200
3.46198098	39.96399000	7.93481200
3.46698098	38.78902000	7.93481200
3.47198098	36.24073000	7.93481200
3.47698098	36.24073000	7.93481200
3.48198098	38.78902000	7.93481200
3.48698098	40.02502000	7.93481200
3.49198098	40.02502000	7.93481200
3.49698098	38.85006000	7.93481200
3.50198098	36.53065000	7.93481200
3.50698098	35.41673000	7.93481200
3.51198098	35.64562000	7.93481200
3.51698098	35.70665000	7.93481200
3.52198098	35.70665000	7.93481200
3.52698098	35.70665000	7.93481200
3.53198098	35.70665000	7.93481200
3.53698098	35.70665000	7.87377500
3.54198098	35.70665000	7.64488600
3.54698098	35.70665000	8.69777500
3.55198098	35.70665000	10.78829000
3.55698098	35.70665000	12.90933000
3.56198098	35.70665000	14.51155000
3.56698098	35.70665000	17.70074000
3.57198098	35.70665000	21.62236000
3.57698098	35.70665000	25.86444000
3.58198098	35.70665000	29.32829000
3.58698098	35.70665000	34.56221000
3.59198098	35.70665000	40.11658000
3.59698098	35.70665000	47.53257000
3.60198098	35.70665000	54.91806000
3.60698098	35.70665000	64.57716000
3.61198098	35.70665000	74.29730000
3.61698098	35.70665000	83.89538000
3.62198098	35.70665000	91.05197000
3.62698098	35.70665000	99.47507000
3.63198098	35.70665000	106.86060000
3.63698098	35.70665000	115.40570000
3.64198098	35.70665000	123.02010000
3.64698098	35.70665000	130.43610000
3.65198098	35.70665000	135.76160000
3.65698098	35.70665000	142.17050000
3.66198098	35.70665000	148.19790000
3.66698098	35.70665000	152.43990000
3.67198098	35.70665000	153.81330000
3.67698098	35.70665000	155.87330000
3.68198098	35.70665000	157.96380000
3.68698098	35.76769000	159.01670000
3.69198098	35.99658000	158.78780000
3.69698098	34.88266000	158.78780000
3.70198098	32.56325000	159.01670000
3.70698098	31.38828000	157.90280000
3.71198098	31.38828000	155.58340000
3.71698098	32.56325000	154.59150000
3.72198098	34.88266000	155.27820000
3.72698098	35.99658000	153.17240000
3.73198098	35.76769000	148.76250000
3.73698098	35.70665000	145.46650000
3.74198098	35.70665000	143.86430000
3.74698098	35.70665000	141.85000000
3.75198098	35.70665000	140.23250000
3.75698098	35.70665000	137.04340000
3.76198098	35.70665000	133.12170000
3.76698098	35.76769000	128.75760000
3.77198098	35.99658000	124.83600000
3.77698098	34.82162000	121.70780000
3.78198098	32.27332000	120.33450000
3.78698098	32.27332000	117.20630000
3.79198098	34.82162000	113.28470000
3.79698098	36.05762000	108.92060000
3.80198098	36.05762000	104.99890000
3.80698098	34.88266000	101.87080000
3.81198098	32.56325000	100.49750000
3.81698098	31.44932000	97.30827000
3.82198098	31.67821000	93.15775000
3.82698098	31.73925000	89.90752000
3.83198098	31.73925000	88.30531000
3.83698098	31.73925000	86.24530000
3.84198098	31.73925000	84.38367000
3.84698098	31.73925000	82.32367000
3.85198098	31.73925000	80.72146000
3.85698098	31.73925000	77.42545000
3.86198098	31.73925000	73.01553000
3.86698098	31.73925000	70.90975000
3.87198098	31.73925000	71.59642000
3.87698098	31.73925000	70.66560000
3.88198098	31.73925000	68.57509000
3.88698098	31.73925000	66.37775000
3.89198098	31.73925000	64.53138000
3.89698098	31.73925000	62.42561000
3.90198098	31.73925000	60.56398000
3.90698098	31.73925000	58.39716000
3.91198098	31.73925000	56.30664000
3.91698098	31.73925000	55.31479000
3.92198098	31.73925000	55.77257000
3.92698098	31.73925000	54.71968000
3.93198098	31.73925000	52.40028000
3.93698098	31.73925000	51.34739000
3.94198098	31.73925000	51.80516000
3.94698098	31.73925000	50.75228000
3.95198098	31.73925000	48.43287000
3.95698098	31.73925000	47.37998000
3.96198098	31.73925000	47.83776000
3.96698098	31.73925000	46.78487000
3.97198098	31.73925000	44.46547000
3.97698098	31.73925000	43.41258000
3.98198098	31.73925000	43.87035000
3.98698098	31.73925000	42.81747000
3.99198098	31.73925000	40.49806000
3.99698098	31.73925000	39.38414000
4.00198098	31.73925000	39.61302000
4.00698098	31.73925000	39.73510000
4.01198098	31.73925000	39.96399000
4.01698098	31.73925000	38.85006000
4.02198098	31.73925000	36.53065000
4.02698098	31.73925000	35.41673000
4.03198098	31.73925000	35.64562000
4.03698098	31.73925000	35.70665000
4.04198098	31.73925000	35.70665000
4.04698098	31.73925000	35.70665000
4.05198098	31.73925000	35.70665000
4.05698098	31.73925000	35.76769000
4.06198098	31.73925000	35.99658000
4.06698098	31.73925000	34.88266000
4.07198098	31.73925000	32.56325000
4.07698098	31.73925000	31.44932000
4.08198098	31.73925000	31.67821000
4.08698098	31.73925000	31.73925000
4.09198098	31.73925000	31.73925000
4.09698098	31.73925000	31.80028000
4.10198098	31.73925000	32.02917000
4.10698098	31.80028000	30.85421000
4.11198098	32.02917000	28.30592000
4.11698098	30.91525000	28.36695000
4.12198098	28.59584000	31.14414000
4.12698098	27.42088000	31.20517000
4.13198098	27.42088000	28.65688000
4.13698098	28.65688000	27.48192000
4.14198098	31.20517000	27.71080000
4.14698098	31.20517000	27.77184000
4.15198098	28.65688000	27.77184000
4.15698098	27.48192000	27.77184000
4.16198098	27.71080000	27.77184000
4.16698098	27.71080000	27.77184000
4.17198098	27.48192000	27.77184000
4.17698098	28.65688000	27.77184000
4.18198098	31.20517000	27.77184000
4.18698098	31.20517000	27.83288000
4.19198098	28.65688000	28.06177000
4.19698098	27.48192000	26.88680000
4.20198098	27.71080000	24.33851000
4.20698098	27.77184000	24.33851000
4.21198098	27.77184000	26.88680000
4.21698098	27.77184000	28.06177000
4.22198098	27.77184000	27.83288000
4.22698098	27.77184000	27.83288000
4.23198098	27.77184000	28.06177000
4.23698098	27.77184000	26.94784000
4.24198098	27.77184000	24.62844000
4.24698098	27.77184000	23.51451000
4.25198098	27.77184000	23.74340000
4.25698098	27.77184000	23.80444000
4.26198098	27.77184000	23.80444000
4.26698098	27.77184000	23.80444000
4.27198098	27.77184000	23.80444000
4.27698098	27.77184000	23.80444000
4.28198098	27.77184000	23.80444000
4.28698098	27.77184000	23.80444000
4.29198098	27.77184000	23.80444000
4.29698098	27.77184000	23.80444000
4.30198098	27.77184000	23.80444000
4.30698098	27.77184000	23.80444000
4.31198098	27.77184000	23.80444000
4.31698098	27.83288000	23.80444000
4.32198098	28.06177000	23.80444000
4.32698098	26.88680000	23.80444000
4.33198098	24.33851000	23.80444000
4.33698098	24.33851000	23.80444000
4.34198098	26.88680000	23.80444000
4.34698098	28.06177000	23.80444000
4.35198098	27.83288000	23.80444000
4.35698098	27.77184000	23.80444000
4.36198098	27.77184000	23.80444000
4.36698098	27.77184000	23.86547000
4.37198098	27.77184000	24.09436000
4.37698098	27.77184000	22.98043000
4.38198098	27.77184000	20.66103000
4.38698098	27.77184000	19.54710000
4.39198098	27.77184000	19.77599000
4.39698098	27.77184000	19.83703000
4.40198098	27.77184000	19.83703000
4.40698098	27.77184000	19.83703000
4.41198098	27.77184000	19.83703000
4.41698098	27.77184000	19.83703000
4.42198098	27.77184000	19.83703000
4.42698098	27.77184000	19.83703000
4.43198098	27.77184000	19.83703000
4.43698098	27.77184000	19.83703000
4.44198098	27.77184000	19.83703000
4.44698098	27.77184000	19.83703000
4.45198098	27.77184000	19.83703000
4.45698098	27.77184000	19.83703000
4.46198098	27.77184000	19.83703000
4.46698098	27.77184000	19.89807000
4.47198098	27.77184000	20.12696000
4.47698098	27.83288000	18.95199000
4.48198098	28.06177000	16.40370000
4.48698098	26.88680000	16.40370000
4.49198098	24.33851000	18.95199000
4.49698098	24.33851000	20.12696000
4.50198098	26.88680000	19.89807000
4.50698098	28.06177000	19.83703000
4.51198098	27.83288000	19.83703000
4.51698098	27.83288000	19.83703000
4.52198098	28.06177000	19.83703000
4.52698097	26.88680000	19.83703000
4.53198097	24.33851000	19.83703000
4.53698097	24.39955000	19.83703000
4.54198097	27.17673000	19.83703000
4.54698097	27.17673000	19.83703000
4.55198097	24.39955000	19.83703000
4.55698097	24.39955000	19.83703000
4.56198097	27.17673000	19.83703000
4.56698097	27.23777000	19.83703000
4.57198097	24.68947000	19.83703000
4.57698097	23.51451000	19.83703000
4.58198097	23.74340000	19.83703000
4.58698097	23.80444000	19.83703000
4.59198097	23.80444000	19.83703000
4.59698097	23.80444000	19.89807000
4.60198097	23.80444000	20.12696000
4.60698097	23.80444000	19.01303000
4.61198097	23.80444000	16.69362000
4.61698097	23.80444000	15.57970000
4.62198097	23.80444000	15.80859000
4.62698097	23.80444000	15.86962000
4.63198097	23.80444000	15.86962000
4.63698097	23.80444000	15.86962000
4.64198097	23.80444000	15.86962000
4.64698097	23.74340000	15.86962000
4.65198097	23.51451000	15.86962000
4.65698097	24.68947000	15.86962000
4.66198097	27.23777000	15.86962000
4.66698097	27.23777000	15.86962000
4.67198097	24.68947000	15.86962000
4.67698097	23.51451000	15.86962000
4.68198097	23.74340000	15.86962000
4.68698097	23.80444000	15.86962000
4.69198097	23.80444000	15.86962000
4.69698097	23.80444000	15.86962000
4.70198097	23.80444000	15.86962000
4.70698097	23.80444000	15.86962000
4.71198097	23.80444000	15.86962000
4.71698097	23.80444000	15.86962000
4.72198097	23.80444000	15.86962000
4.72698097	23.80444000	15.86962000
4.73198097	23.80444000	15.86962000
4.73698097	23.80444000	15.86962000
4.74198097	23.80444000	15.86962000
4.74698097	23.80444000	15.86962000
4.75198097	23.80444000	15.86962000
4.75698097	23.80444000	15.86962000
4.76198097	23.80444000	15.86962000
4.76698097	23.80444000	15.86962000
4.77198097	23.80444000	15.86962000
4.77698097	23.80444000	15.86962000
4.78198097	23.80444000	15.86962000
4.78698097	23.80444000	15.86962000
4.79198097	23.80444000	15.86962000
4.79698097	23.80444000	15.86962000
4.80198097	23.80444000	15.86962000
4.80698097	23.80444000	15.86962000
4.81198097	23.80444000	15.86962000
4.81698097	23.80444000	15.86962000
4.82198097	23.80444000	15.86962000
4.82698097	23.80444000	15.86962000
4.83198097	23.80444000	15.86962000
4.83698097	23.80444000	15.86962000
4.84198097	23.80444000	15.86962000
4.84698097	23.80444000	15.86962000
4.85198097	23.80444000	15.86962000
4.85698097	23.80444000	15.86962000
4.86198097	23.80444000	15.86962000
4.86698097	23.80444000	15.86962000
4.87198097	23.80444000	15.86962000
4.87698097	23.80444000	15.86962000
4.88198097	23.80444000	15.86962000
4.88698097	23.80444000	15.86962000
4.89198097	23.80444000	15.86962000
4.89698097	23.80444000	15.86962000
4.90198097	23.80444000	15.86962000
4.90698097	23.80444000	15.86962000
4.91198097	23.80444000	15.86962000
4.91698097	23.80444000	15.86962000
4.92198097	23.80444000	15.86962000
4.92698097	23.80444000	15.86962000
4.93198097	23.80444000	15.86962000
4.93698097	23.80444000	15.86962000
4.94198097	23.80444000	15.86962000
4.94698097	23.80444000	15.86962000
4.95198097	23.80444000	15.86962000
4.95698097	23.80444000	15.86962000
4.96198097	23.80444000	15.86962000
4.96698097	23.80444000	15.86962000
4.97198097	23.80444000	15.86962000
4.97698097	23.80444000	15.93066000
4.98198097	23.80444000	16.15955000
4.98698097	23.80444000	15.04562000
4.99198097	23.80444000	12.72622000
4.99698097	23.80444000	11.61229000
5.00198097	23.80444000	11.84118000
5.00698097	23.80444000	11.90222000
5.01198097	23.80444000	11.90222000
5.01698097	23.80444000	11.90222000
5.02198097	23.80444000	11.90222000
5.02698097	23.80444000	11.90222000
5.03198097	23.80444000	11.90222000
5.03698097	23.80444000	11.84118000
5.04198097	23.80444000	11.61229000
5.04698097	23.86547000	12.72622000
5.05198097	24.09436000	15.04562000
5.05698097	22.91940000	16.22059000
5.06198097	20.37111000	16.22059000
5.06698097	20.37111000	14.98459000
5.07198097	22.91940000	12.43629000
5.07698097	24.09436000	12.43629000
5.08198097	23.86547000	14.98459000
5.08698097	23.80444000	16.15955000
5.09198097	23.80444000	15.93066000
5.09698097	23.80444000	15.86962000
5.10198097	23.80444000	15.86962000
5.10698097	23.80444000	15.86962000
5.11198097	23.80444000	15.86962000
5.11698097	23.80444000	15.86962000
5.12198097	23.80444000	15.86962000
5.12698097	23.86547000	15.93066000
5.13198097	24.09436000	16.15955000
5.13698097	22.91940000	15.04562000
5.14198097	20.37111000	12.72622000
5.14698097	20.37111000	11.55125000
5.15198097	22.91940000	11.55125000
5.15698097	24.15540000	12.78725000
5.16198097	24.15540000	15.33555000
5.16698097	22.98043000	15.33555000
5.17198097	20.66103000	12.78725000
5.17698097	19.54710000	11.61229000
5.18198097	19.77599000	11.84118000
5.18698097	19.83703000	11.90222000
5.19198097	19.83703000	11.90222000
5.19698097	19.83703000	11.90222000
5.20198097	19.83703000	11.90222000
5.20698097	19.83703000	11.90222000
5.21198097	19.83703000	11.90222000
5.21698097	19.83703000	11.90222000
5.22198097	19.83703000	11.90222000
5.22698097	19.83703000	11.90222000
5.23198097	19.83703000	11.90222000
5.23698097	19.83703000	11.90222000
5.24198097	19.83703000	11.90222000
5.24698097	19.83703000	11.90222000
5.25198097	19.83703000	11.90222000
5.25698097	19.83703000	11.90222000
5.26198097	19.83703000	11.90222000
5.26698097	19.83703000	11.90222000
5.27198097	19.83703000	11.90222000
5.27698097	19.83703000	11.90222000
5.28198097	19.83703000	11.90222000
5.28698097	19.83703000	11.90222000
5.29198097	19.83703000	11.90222000
5.29698097	19.83703000	11.90222000
5.30198097	19.83703000	11.90222000
5.30698097	19.83703000	11.90222000
5.31198097	19.83703000	11.90222000
5.31698097	19.83703000	11.90222000
5.32198097	19.83703000	11.90222000
5.32698097	19.83703000	11.90222000
5.33198097	19.83703000	11.90222000
5.33698097	19.83703000	11.90222000
5.34198097	19.83703000	11.90222000
5.34698097	19.83703000	11.90222000
5.35198097	19.83703000	11.90222000
5.35698097	19.83703000	11.90222000
5.36198097	19.83703000	11.90222000
5.36698097	19.83703000	11.90222000
5.37198097	19.83703000	11.90222000
5.37698097	19.83703000	11.90222000
5.38198097	19.83703000	11.90222000
5.38698097	19.83703000	11.90222000
5.39198097	19.83703000	11.90222000
5.39698097	19.83703000	11.90222000
5.40198097	19.83703000	11.90222000
5.40698097	19.83703000	11.90222000
5.41198097	19.83703000	11.90222000
5.41698097	19.83703000	11.90222000
5.42198097	19.83703000	11.90222000
5.42698097	19.83703000	11.90222000
5.43198097	19.83703000	11.90222000
5.43698097	19.83703000	11.90222000
5.44198097	19.83703000	11.90222000
5.44698097	19.89807000	11.90222000
5.45198097	20.12696000	11.90222000
5.45698097	18.95199000	11.90222000
5.46198097	16.40370000	11.90222000
5.46698097	16.40370000	11.90222000
5.47198097	18.95199000	11.90222000
5.47698097	20.18799000	11.90222000
5.48198097	20.18799000	11.90222000
5.48698097	18.95199000	11.90222000
5.49198097	16.40370000	11.90222000
5.49698097	16.46474000	11.90222000
5.50198097	19.24192000	11.90222000
5.50698097	19.24192000	11.90222000
5.51198097	16.46474000	11.90222000
5.51698097	16.40370000	11.90222000
5.52198097	18.95199000	11.90222000
5.52698097	20.12696000	11.90222000
5.53198097	19.89807000	11.90222000
5.53698097	19.89807000	11.90222000
5.54198097	20.12696000	11.90222000
5.54698097	18.95199000	11.90222000
5.55198097	16.40370000	11.90222000
5.55698097	16.40370000	11.90222000
5.56198097	18.95199000	11.90222000
5.56698097	20.18799000	11.90222000
5.57198097	20.18799000	11.90222000
5.57698097	18.95199000	11.90222000
5.58198097	16.40370000	11.90222000
5.58698097	16.46474000	11.90222000
5.59198097	19.24192000	11.90222000
5.59698097	19.24192000	11.90222000
5.60198097	16.46474000	11.90222000
5.60698097	16.40370000	11.90222000
5.61198097	18.95199000	11.90222000
5.61698097	20.18799000	11.90222000
5.62198097	20.18799000	11.90222000
5.62698097	18.95199000	11.96325000
5.63198097	16.40370000	12.19214000
5.63698097	16.40370000	11.01718000
5.64198097	18.95199000	8.46888600
5.64698097	20.12696000	8.46888600
5.65198097	19.89807000	11.01718000
5.65698097	19.89807000	12.19214000
5.66198097	20.12696000	11.96325000
5.66698097	18.95199000	11.96325000
5.67198097	16.40370000	12.19214000
5.67698097	16.40370000	11.01718000
5.68198097	18.95199000	8.46888600
5.68698097	20.18799000	8.46888600
5.69198097	20.18799000	11.01718000
5.69698097	19.01303000	12.19214000
5.70198097	16.69362000	11.96325000
5.70698097	15.51866000	11.90222000
5.71198097	15.51866000	11.90222000
5.71698097	16.75466000	11.90222000
5.72198097	19.30296000	11.90222000
5.72698097	19.30296000	11.90222000
5.73198097	16.75466000	11.90222000
5.73698097	15.57970000	11.90222000
5.74198097	15.80859000	11.90222000
5.74698097	15.86962000	11.90222000
5.75198097	15.86962000	11.90222000
5.75698097	15.86962000	11.90222000
5.76198097	15.86962000	11.90222000
5.76698097	15.86962000	11.96325000
5.77198097	15.86962000	12.19214000
5.77698097	15.86962000	11.01718000
5.78198097	15.86962000	8.46888600
5.78698097	15.86962000	8.46888600
5.79198097	15.86962000	11.01718000
5.79698097	15.86962000	12.19214000
5.80198097	15.86962000	11.96325000
5.80698097	15.86962000	11.96325000
5.81198097	15.86962000	12.19214000
5.81698097	15.86962000	11.07822000
5.82198097	15.86962000	8.75881200
5.82698097	15.86962000	7.58384900
5.83198097	15.86962000	7.58384900
5.83698097	15.86962000	8.75881200
5.84198097	15.86962000	11.07822000
5.84698097	15.86962000	12.19214000
5.85198097	15.86962000	11.96325000
5.85698097	15.86962000	11.90222000
5.86198097	15.86962000	11.90222000
5.86698097	15.86962000	11.90222000
5.87198097	15.86962000	11.90222000
5.87698097	15.86962000	11.90222000
5.88198097	15.86962000	11.90222000
5.88698097	15.86962000	11.90222000
5.89198097	15.86962000	11.90222000
5.89698097	15.86962000	11.90222000
5.90198097	15.86962000	11.90222000
5.90698097	15.86962000	11.90222000
5.91198097	15.86962000	11.90222000
5.91698097	15.86962000	11.90222000
5.92198097	15.86962000	11.90222000
5.92698097	15.86962000	11.90222000
5.93198097	15.86962000	11.90222000
5.93698097	15.86962000	11.90222000
5.94198097	15.86962000	11.90222000
5.94698097	15.86962000	11.90222000
5.95198097	15.86962000	11.90222000
5.95698097	15.86962000	11.90222000
5.96198097	15.86962000	11.90222000
5.96698097	15.86962000	11.90222000
5.97198097	15.86962000	11.90222000
5.97698097	15.86962000	11.96325000
5.98198097	15.86962000	12.19214000
5.98698097	15.86962000	11.07822000
5.99198097	15.86962000	8.75881200
5.99698097	15.86962000	7.64488600
6.00198097	15.86962000	7.87377500
6.00698097	15.86962000	7.87377500
6.01198097	15.86962000	7.64488600
6.01698097	15.86962000	8.81984900
6.02198097	15.86962000	11.36814000
6.02698097	15.86962000	11.30711000
6.03198097	15.86962000	8.52992300
6.03698097	15.86962000	8.46888600
6.04198097	15.86962000	11.01718000
6.04698097	15.86962000	12.19214000
6.05198097	15.86962000	11.96325000
6.05698097	15.86962000	11.90222000
6.06198097	15.86962000	11.90222000
6.06698097	15.86962000	11.96325000
6.07198097	15.86962000	12.19214000
6.07698097	15.86962000	11.07822000
6.08198097	15.86962000	8.75881200
6.08698097	15.86962000	7.64488600
6.09198097	15.86962000	7.87377500
6.09698097	15.86962000	7.87377500
6.10198097	15.86962000	7.64488600
6.10698097	15.86962000	8.81984900
6.11198097	15.86962000	11.36814000
6.11698097	15.86962000	11.36814000
6.12198097	15.86962000	8.81984900
6.12698097	15.86962000	7.64488600
6.13198097	15.86962000	7.87377500
6.13698097	15.86962000	7.93481200
6.14198097	15.86962000	7.93481200
6.14698097	15.86962000	7.93481200
6.15198097	15.86962000	7.93481200
6.15698097	15.86962000	7.93481200
6.16198097	15.86962000	7.93481200
6.16698097	15.86962000	7.93481200
6.17198096	15.86962000	7.93481200
6.17698096	15.86962000	7.93481200
6.18198096	15.86962000	7.93481200
6.18698096	15.86962000	7.93481200
6.19198096	15.86962000	7.93481200
6.19698096	15.86962000	7.93481200
6.20198096	15.86962000	7.93481200
6.20698096	15.86962000	7.93481200
6.21198096	15.86962000	7.93481200
6.21698096	15.86962000	7.93481200
6.22198096	15.86962000	7.93481200
6.22698096	15.86962000	7.93481200
6.23198096	15.86962000	7.93481200
6.23698096	15.86962000	7.93481200
6.24198096	15.86962000	7.93481200
6.24698096	15.86962000	7.93481200
6.25198096	15.86962000	7.93481200
6.25698096	15.86962000	7.87377500
6.26198096	15.86962000	7.64488600
6.26698096	15.86962000	8.81984900
6.27198096	15.86962000	11.36814000
6.27698096	15.86962000	11.30711000
6.28198096	15.86962000	8.52992300
6.28698096	15.86962000	8.52992300
6.29198096	15.86962000	11.30711000
6.29698096	15.86962000	11.30711000
6.30198096	15.86962000	8.52992300
6.30698096	15.86962000	8.46888600
6.31198096	15.86962000	11.01718000
6.31698096	15.86962000	12.19214000
6.32198096	15.86962000	11.96325000
6.32698096	15.86962000	11.90222000
6.33198096	15.86962000	11.90222000
6.33698096	15.86962000	11.96325000
6.34198096	15.86962000	12.19214000
6.34698096	15.86962000	11.01718000
6.35198096	15.86962000	8.46888600
6.35698096	15.86962000	8.52992300
6.36198096	15.86962000	11.30711000
6.36698096	15.86962000	11.30711000
6.37198096	15.86962000	8.52992300
6.37698096	15.86962000	8.52992300
6.38198096	15.86962000	11.30711000
6.38698096	15.86962000	11.36814000
6.39198096	15.86962000	8.81984900
6.39698096	15.86962000	7.58384900
6.40198096	15.86962000	7.58384900
6.40698096	15.86962000	8.81984900
6.41198096	15.86962000	11.36814000
6.41698096	15.86962000	11.36814000
6.42198096	15.86962000	8.81984900
6.42698096	15.86962000	7.64488600
6.43198096	15.86962000	7.87377500
6.43698096	15.86962000	7.93481200
6.44198096	15.86962000	7.93481200
6.44698096	15.86962000	7.93481200
6.45198096	15.86962000	7.93481200
6.45698096	15.86962000	7.93481200
6.46198096	15.86962000	7.93481200
6.46698096	15.86962000	7.93481200
6.47198096	15.86962000	7.93481200
6.47698096	15.86962000	7.93481200
6.48198096	15.86962000	7.93481200
6.48698096	15.86962000	7.93481200
6.49198096	15.86962000	7.93481200
6.49698096	15.86962000	7.93481200
6.50198096	15.86962000	7.93481200
6.50698096	15.86962000	7.87377500
6.51198096	15.86962000	7.64488600
6.51698096	15.86962000	8.75881200
6.52198096	15.86962000	11.07822000
6.52698096	15.86962000	12.19214000
6.53198096	15.86962000	11.96325000
6.53698096	15.86962000	11.90222000
6.54198096	15.86962000	11.90222000
6.54698096	15.86962000	11.90222000
6.55198096	15.86962000	11.90222000
6.55698096	15.86962000	11.90222000
6.56198096	15.86962000	11.90222000
6.56698096	15.86962000	11.90222000
6.57198096	15.86962000	11.90222000
6.57698096	15.86962000	11.90222000
6.58198096	15.86962000	11.90222000
6.58698096	15.86962000	11.90222000
6.59198096	15.86962000	11.90222000
6.59698096	15.93066000	11.90222000
6.60198096	16.15955000	11.90222000
6.60698096	14.98459000	11.90222000
6.61198096	12.43629000	11.90222000
6.61698096	12.43629000	11.96325000
6.62198096	14.98459000	12.19214000
6.62698096	16.15955000	11.07822000
6.63198096	15.93066000	8.75881200
6.63698096	15.86962000	7.58384900
6.64198096	15.86962000	7.58384900
6.64698096	15.93066000	8.81984900
6.65198096	16.15955000	11.36814000
6.65698096	14.98459000	11.36814000
6.66198096	12.43629000	8.81984900
6.66698096	12.49733000	7.58384900
6.67198096	15.27451000	7.58384900
6.67698096	15.27451000	8.75881200
6.68198096	12.49733000	11.07822000
6.68698096	12.43629000	12.25318000
6.69198096	14.98459000	12.25318000
6.69698096	16.15955000	11.07822000
6.70198096	15.93066000	8.75881200
6.70698096	15.86962000	7.64488600
6.71198096	15.86962000	7.87377500
6.71698096	15.86962000	7.93481200
6.72198096	15.86962000	7.93481200
6.72698096	15.86962000	7.93481200
6.73198096	15.86962000	7.93481200
6.73698096	15.86962000	7.87377500
6.74198096	15.86962000	7.64488600
6.74698096	15.86962000	8.81984900
6.75198096	15.86962000	11.36814000
6.75698096	15.93066000	11.36814000
6.76198096	16.15955000	8.81984900
6.76698096	15.04562000	7.64488600
6.77198096	12.72622000	7.87377500
6.77698096	11.55125000	7.93481200
6.78198096	11.55125000	7.93481200
6.78698096	12.72622000	7.93481200
6.79198096	15.04562000	7.93481200
6.79698096	16.15955000	7.93481200
6.80198096	15.93066000	7.93481200
6.80698096	15.93066000	7.93481200
6.81198096	16.15955000	7.93481200
6.81698096	15.04562000	7.93481200
6.82198096	12.72622000	7.93481200
6.82698096	11.61229000	7.93481200
6.83198096	11.84118000	7.93481200
6.83698096	11.84118000	7.93481200
6.84198096	11.61229000	7.93481200
6.84698096	12.72622000	7.93481200
6.85198096	15.04562000	7.93481200
6.85698096	16.22059000	7.93481200
6.86198096	16.22059000	7.93481200
6.86698096	14.98459000	7.93481200
6.87198096	12.43629000	7.93481200
6.87698096	12.43629000	7.93481200
6.88198096	14.98459000	7.93481200
6.88698096	16.22059000	7.93481200
6.89198096	16.22059000	7.93481200
6.89698096	15.04562000	7.93481200
6.90198096	12.72622000	7.93481200
6.90698096	11.61229000	7.93481200
6.91198096	11.84118000	7.93481200
6.91698096	11.90222000	7.93481200
6.92198096	11.90222000	7.93481200
6.92698096	11.90222000	7.93481200
6.93198096	11.90222000	7.93481200
6.93698096	11.90222000	7.87377500
6.94198096	11.90222000	7.64488600
6.94698096	11.84118000	8.81984900
6.95198096	11.61229000	11.36814000
6.95698096	12.78725000	11.36814000
6.96198096	15.33555000	8.81984900
6.96698096	15.33555000	7.64488600
6.97198096	12.78725000	7.87377500
6.97698096	11.61229000	7.93481200
6.98198096	11.84118000	7.93481200
6.98698096	11.90222000	7.93481200
6.99198096	11.90222000	7.93481200
6.99698096	11.90222000	7.93481200
7.00198096	11.90222000	7.93481200
7.00698096	11.90222000	7.93481200
7.01198096	11.90222000	7.93481200
7.01698096	11.90222000	7.93481200
7.02198096	11.90222000	7.93481200
7.02698096	11.90222000	7.93481200
7.03198096	11.90222000	7.93481200
7.03698096	11.90222000	7.93481200
7.04198096	11.90222000	7.93481200
7.04698096	11.90222000	7.93481200
7.05198096	11.90222000	7.93481200
7.05698096	11.90222000	7.93481200
7.06198096	11.90222000	7.93481200
7.06698096	11.84118000	7.93481200
7.07198096	11.61229000	7.93481200
7.07698096	12.72622000	7.93481200
7.08198096	15.04562000	7.93481200
7.08698096	16.22059000	7.93481200
7.09198096	16.22059000	7.93481200
7.09698096	15.04562000	7.93481200
7.10198096	12.72622000	7.93481200
7.10698096	11.61229000	7.93481200
7.11198096	11.84118000	7.93481200
7.11698096	11.90222000	7.93481200
7.12198096	11.90222000	7.93481200
7.12698096	11.90222000	7.93481200
7.13198096	11.90222000	7.93481200
7.13698096	11.90222000	7.93481200
7.14198096	11.90222000	7.93481200
7.14698096	11.90222000	7.93481200
7.15198096	11.90222000	7.93481200
7.15698096	11.90222000	7.93481200
7.16198096	11.90222000	7.93481200
7.16698096	11.90222000	7.93481200
7.17198096	11.90222000	7.93481200
7.17698096	11.90222000	7.93481200
7.18198096	11.90222000	7.93481200
7.18698096	11.90222000	7.93481200
7.19198096	11.90222000	7.93481200
7.19698096	11.90222000	7.93481200
7.20198096	11.90222000	7.93481200
7.20698096	11.90222000	7.93481200
7.21198096	11.90222000	7.93481200
7.21698096	11.90222000	7.93481200
7.22198096	11.90222000	7.93481200
7.22698096	11.90222000	7.93481200
7.23198096	11.90222000	7.93481200
7.23698096	11.90222000	7.93481200
7.24198096	11.90222000	7.93481200
7.24698096	11.90222000	7.93481200
7.25198096	11.90222000	7.93481200
7.25698096	11.90222000	7.93481200
7.26198096	11.90222000	7.93481200
7.26698096	11.90222000	7.93481200
7.27198096	11.90222000	7.93481200
7.27698096	11.90222000	7.93481200
7.28198096	11.90222000	7.93481200
7.28698096	11.90222000	7.93481200
7.29198096	11.90222000	7.93481200
7.29698096	11.90222000	7.93481200
7.30198096	11.90222000	7.93481200
7.30698096	11.90222000	7.93481200
7.31198096	11.90222000	7.93481200
7.31698096	11.90222000	7.93481200
7.32198096	11.90222000	7.93481200
7.32698096	11.90222000	7.93481200
7.33198096	11.90222000	7.93481200
7.33698096	11.90222000	7.93481200
7.34198096	11.90222000	7.93481200
7.34698096	11.90222000	7.93481200
7.35198096	11.90222000	7.93481200
7.35698096	11.90222000	7.93481200
7.36198096	11.90222000	7.93481200
7.36698096	11.90222000	7.93481200
7.37198096	11.90222000	7.93481200
7.37698096	11.90222000	7.93481200
7.38198096	11.90222000	7.93481200
7.38698096	11.90222000	7.87377500
7.39198096	11.90222000	7.64488600
7.39698096	11.90222000	8.81984900
7.40198096	11.90222000	11.36814000
7.40698096	11.90222000	11.30711000
7.41198096	11.90222000	8.52992300
7.41698096	11.90222000	8.52992300
7.42198096	11.90222000	11.30711000
7.42698096	11.90222000	11.36814000
7.43198096	11.90222000	8.81984900
7.43698096	11.90222000	7.64488600
7.44198096	11.90222000	7.87377500
7.44698096	11.90222000	7.93481200
7.45198096	11.90222000	7.93481200
7.45698096	11.90222000	7.93481200
7.46198096	11.90222000	7.93481200
7.46698096	11.90222000	7.93481200
7.47198096	11.90222000	7.93481200
7.47698096	11.90222000	7.93481200
7.48198096	11.90222000	7.93481200
7.48698096	11.90222000	7.93481200
7.49198096	11.90222000	7.93481200
7.49698096	11.90222000	7.93481200
7.50198096	11.90222000	7.93481200
7.50698096	11.90222000	7.93481200
7.51198096	11.90222000	7.93481200
7.51698096	11.90222000	7.93481200
7.52198096	11.90222000	7.93481200
7.52698096	11.90222000	7.93481200
7.53198096	11.90222000	7.93481200
7.53698096	11.90222000	7.93481200
7.54198096	11.90222000	7.93481200
7.54698096	11.90222000	7.93481200
7.55198096	11.90222000	7.93481200
7.55698096	11.90222000	7.93481200
7.56198096	11.90222000	7.93481200
7.56698096	11.90222000	7.93481200
7.57198096	11.90222000	7.93481200
7.57698096	11.90222000	7.93481200
7.58198096	11.90222000	7.93481200
7.58698096	11.90222000	7.93481200
7.59198096	11.90222000	7.93481200
7.59698096	11.90222000	7.93481200
7.60198096	11.90222000	7.93481200
7.60698096	11.90222000	7.93481200
7.61198096	11.90222000	7.93481200
7.61698096	11.90222000	7.93481200
7.62198096	11.90222000	7.93481200
7.62698096	11.90222000	7.93481200
7.63198096	11.90222000	7.93481200
7.63698096	11.90222000	7.93481200
7.64198096	11.90222000	7.93481200
7.64698096	11.90222000	7.93481200
7.65198096	11.90222000	7.93481200
7.65698096	11.90222000	7.93481200
7.66198096	11.90222000	7.93481200
7.66698096	11.90222000	7.93481200
7.67198096	11.90222000	7.93481200
7.67698096	11.90222000	7.93481200
7.68198096	11.90222000	7.93481200
7.68698096	11.90222000	7.93481200
7.69198096	11.90222000	7.93481200
7.69698096	11.90222000	7.93481200
7.70198096	11.90222000	7.93481200
7.70698096	11.90222000	7.93481200
7.71198096	11.90222000	7.93481200
7.71698096	11.90222000	7.93481200
7.72198096	11.90222000	7.93481200
7.72698096	11.90222000	7.93481200
7.73198096	11.90222000	7.93481200
7.73698096	11.90222000	7.93481200
7.74198096	11.90222000	7.93481200
7.74698096	11.90222000	7.93481200
7.75198096	11.90222000	7.93481200
7.75698096	11.90222000	7.93481200
7.76198096	11.90222000	7.93481200
7.76698096	11.90222000	7.93481200
7.77198096	11.90222000	7.93481200
7.77698096	11.90222000	7.93481200
7.78198096	11.90222000	7.93481200
7.78698096	11.90222000	7.93481200
7.79198096	11.90222000	7.93481200
7.79698096	11.90222000	7.93481200
7.80198096	11.90222000	7.93481200
7.80698096	11.90222000	7.93481200
7.81198096	11.90222000	7.93481200
7.81698095	11.90222000	7.93481200
7.82198095	11.90222000	7.93481200
7.82698095	11.90222000	7.93481200
7.83198095	11.90222000	7.93481200
7.83698095	11.90222000	7.93481200
7.84198095	11.90222000	7.93481200
7.84698095	11.90222000	7.93481200
7.85198095	11.90222000	7.93481200
7.85698095	11.90222000	7.93481200
7.86198095	11.90222000	7.93481200
7.86698095	11.90222000	7.93481200
7.87198095	11.90222000	7.93481200
7.87698095	11.90222000	7.93481200
7.88198095	11.90222000	7.93481200
7.88698095	11.90222000	7.93481200
7.89198095	11.90222000	7.93481200
7.89698095	11.90222000	7.93481200
7.90198095	11.90222000	7.93481200
7.90698095	11.96325000	7.99584900
7.91198095	12.19214000	8.22473800
7.91698095	11.01718000	7.04977500
7.92198095	8.46888600	4.50148000
7.92698095	8.46888600	4.50148000
7.93198095	11.01718000	7.04977500
7.93698095	12.19214000	8.22473800
7.94198095	11.96325000	7.99584900
7.94698095	11.90222000	7.99584900
7.95198095	11.90222000	8.22473800
7.95698095	11.90222000	7.04977500
7.96198095	11.90222000	4.50148000
7.96698095	11.90222000	4.50148000
7.97198095	11.90222000	7.04977500
7.97698095	11.90222000	8.22473800
7.98198095	11.90222000	7.99584900
7.98698095	11.90222000	7.93481200
7.99198095	11.90222000	7.93481200
7.99698095	11.90222000	7.93481200
8.00198095	11.90222000	7.93481200
8.00698095	11.90222000	7.93481200
8.01198095	11.90222000	7.93481200
8.01698095	11.90222000	7.93481200
8.02198095	11.90222000	7.93481200
8.02698095	11.90222000	7.93481200
8.03198095	11.90222000	7.93481200
8.03698095	11.96325000	7.93481200
8.04198095	12.19214000	7.93481200
8.04698095	11.01718000	7.93481200
8.05198095	8.46888600	7.93481200
8.05698095	8.46888600	7.93481200
8.06198095	11.01718000	7.93481200
8.06698095	12.19214000	7.93481200
8.07198095	11.96325000	7.93481200
8.07698095	11.90222000	7.99584900
8.08198095	11.90222000	8.22473800
8.08698095	11.90222000	7.04977500
8.09198095	11.90222000	4.50148000
8.09698095	11.90222000	4.50148000
8.10198095	11.90222000	7.04977500
8.10698095	11.90222000	8.28577500
8.11198095	11.90222000	8.28577500
8.11698095	11.90222000	7.04977500
8.12198095	11.90222000	4.50148000
8.12698095	11.90222000	4.50148000
8.13198095	11.90222000	7.04977500
8.13698095	11.90222000	8.28577500
8.14198095	11.90222000	8.28577500
8.14698095	11.90222000	7.04977500
8.15198095	11.90222000	4.50148000
8.15698095	11.90222000	4.50148000
8.16198095	11.90222000	7.04977500
8.16698095	11.90222000	8.22473800
8.17198095	11.90222000	7.99584900
8.17698095	11.90222000	7.99584900
8.18198095	11.90222000	8.22473800
8.18698095	11.90222000	7.04977500
8.19198095	11.90222000	4.50148000
8.19698095	11.90222000	4.50148000
8.20198095	11.90222000	7.04977500
8.20698095	11.90222000	8.22473800
8.21198095	11.90222000	7.99584900
8.21698095	11.96325000	7.93481200
8.22198095	12.19214000	7.93481200
8.22698095	11.01718000	7.93481200
8.23198095	8.46888600	7.93481200
8.23698095	8.46888600	7.93481200
8.24198095	11.01718000	7.93481200
8.24698095	12.19214000	7.93481200
8.25198095	11.96325000	7.93481200
8.25698095	11.96325000	7.93481200
8.26198095	12.19214000	7.93481200
8.26698095	11.07822000	7.93481200
8.27198095	8.75881200	7.93481200
8.27698095	7.58384900	7.93481200
8.28198095	7.58384900	7.93481200
8.28698095	8.81984900	7.87377500
8.29198095	11.36814000	7.64488600
8.29698095	11.36814000	8.81984900
8.30198095	8.81984900	11.36814000
8.30698095	7.58384900	11.36814000
8.31198095	7.58384900	8.81984900
8.31698095	8.81984900	7.64488600
8.32198095	11.36814000	7.87377500
8.32698095	11.30711000	7.93481200
8.33198095	8.52992300	7.93481200
8.33698095	8.52992300	7.93481200
8.34198095	11.30711000	7.93481200
8.34698095	11.36814000	7.93481200
8.35198095	8.81984900	7.93481200
8.35698095	7.58384900	7.93481200
8.36198095	7.58384900	7.93481200
8.36698095	8.81984900	7.93481200
8.37198095	11.36814000	7.93481200
8.37698095	11.36814000	7.93481200
8.38198095	8.81984900	7.93481200
8.38698095	7.58384900	7.93481200
8.39198095	7.58384900	7.93481200
8.39698095	8.81984900	7.93481200
8.40198095	11.36814000	7.93481200
8.40698095	11.36814000	7.93481200
8.41198095	8.81984900	7.93481200
8.41698095	7.64488600	7.93481200
8.42198095	7.87377500	7.93481200
8.42698095	7.93481200	7.93481200
8.43198095	7.93481200	7.93481200
8.43698095	7.93481200	7.93481200
8.44198095	7.93481200	7.93481200
8.44698095	7.93481200	7.93481200
8.45198095	7.93481200	7.93481200
8.45698095	7.87377500	7.93481200
8.46198095	7.64488600	7.93481200
8.46698095	8.75881200	7.93481200
8.47198095	11.07822000	7.93481200
8.47698095	12.25318000	7.93481200
8.48198095	12.25318000	7.93481200
8.48698095	11.07822000	7.93481200
8.49198095	8.75881200	7.93481200
8.49698095	7.64488600	7.93481200
8.50198095	7.87377500	7.93481200
8.50698095	7.93481200	7.93481200
8.51198095	7.93481200	7.93481200
8.51698095	7.93481200	7.93481200
8.52198095	7.93481200	7.93481200
8.52698095	7.93481200	7.93481200
8.53198095	7.93481200	7.93481200
8.53698095	7.93481200	7.93481200
8.54198095	7.93481200	7.93481200
8.54698095	7.87377500	7.93481200
8.55198095	7.64488600	7.93481200
8.55698095	8.81984900	7.93481200
8.56198095	11.36814000	7.93481200
8.56698095	11.36814000	7.93481200
8.57198095	8.81984900	7.93481200
8.57698095	7.64488600	7.93481200
8.58198095	7.87377500	7.93481200
8.58698095	7.93481200	7.87377500
8.59198095	7.93481200	7.64488600
8.59698095	7.93481200	8.75881200
8.60198095	7.93481200	11.07822000
8.60698095	7.87377500	12.25318000
8.61198095	7.64488600	12.25318000
8.61698095	8.81984900	11.07822000
8.62198095	11.36814000	8.75881200
8.62698095	11.30711000	7.64488600
8.63198095	8.52992300	7.87377500
8.63698095	8.46888600	7.93481200
8.64198095	11.01718000	7.93481200
8.64698095	12.25318000	7.93481200
8.65198095	12.25318000	7.93481200
8.65698095	11.07822000	7.93481200
8.66198095	8.75881200	7.93481200
8.66698095	7.64488600	7.93481200
8.67198095	7.87377500	7.93481200
8.67698095	7.93481200	7.93481200
8.68198095	7.93481200	7.93481200
8.68698095	7.93481200	7.93481200
8.69198095	7.93481200	7.93481200
8.69698095	7.93481200	7.93481200
8.70198095	7.93481200	7.93481200
8.70698095	7.93481200	7.99584900
8.71198095	7.93481200	8.22473800
8.71698095	7.93481200	7.04977500
8.72198095	7.93481200	4.50148000
8.72698095	7.93481200	4.56251700
8.73198095	7.93481200	7.33970100
8.73698095	7.93481200	7.40073800
8.74198095	7.93481200	4.85244300
8.74698095	7.93481200	3.61644300
8.75198095	7.93481200	3.61644300
8.75698095	7.93481200	4.79140600
8.76198095	7.93481200	7.11081200
8.76698095	7.93481200	8.22473800
8.77198095	7.93481200	7.99584900
8.77698095	7.87377500	7.99584900
8.78198095	7.64488600	8.22473800
8.78698095	8.81984900	7.04977500
8.79198095	11.36814000	4.50148000
8.79698095	11.36814000	4.50148000
8.80198095	8.81984900	7.04977500
8.80698095	7.64488600	8.22473800
8.81198095	7.87377500	7.99584900
8.81698095	7.93481200	7.93481200
8.82198095	7.93481200	7.93481200
8.82698095	7.87377500	7.93481200
8.83198095	7.64488600	7.93481200
8.83698095	8.81984900	7.93481200
8.84198095	11.36814000	7.93481200
8.84698095	11.36814000	7.93481200
8.85198095	8.81984900	7.93481200
8.85698095	7.64488600	7.93481200
8.86198095	7.87377500	7.93481200
8.86698095	7.87377500	7.93481200
8.87198095	7.64488600	7.93481200
8.87698095	8.81984900	7.93481200
8.88198095	11.36814000	7.93481200
8.88698095	11.36814000	7.93481200
8.89198095	8.81984900	7.93481200
8.89698095	7.64488600	7.93481200
8.90198095	7.87377500	7.93481200
8.90698095	7.93481200	7.93481200
8.91198095	7.93481200	7.93481200
8.91698095	7.93481200	7.93481200
8.92198095	7.93481200	7.93481200
8.92698095	7.93481200	7.93481200
8.93198095	7.93481200	7.93481200
8.93698095	7.93481200	7.93481200
8.94198095	7.93481200	7.93481200
8.94698095	7.93481200	7.93481200
8.95198095	7.93481200	7.93481200
8.95698095	7.93481200	7.93481200
8.96198095	7.93481200	7.93481200
8.96698095	7.93481200	7.93481200
8.97198095	7.93481200	7.93481200
8.97698095	7.93481200	7.93481200
8.98198095	7.93481200	7.93481200
8.98698095	7.93481200	7.93481200
8.99198095	7.93481200	7.93481200
8.99698095	7.93481200	7.93481200
9.00198095	7.93481200	7.93481200
9.00698095	7.93481200	7.93481200
9.01198095	7.93481200	7.93481200
9.01698095	7.93481200	7.93481200
9.02198095	7.93481200	7.93481200
9.02698095	7.93481200	7.93481200
9.03198095	7.93481200	7.93481200
