Time	Channel A	Channel B
(us)	(mV)	(mV)

-1.01021798	11.90222000	11.61229000
-1.00521798	11.90222000	11.84118000
-1.00021798	11.90222000	11.90222000
-0.99521798	11.90222000	11.90222000
-0.99021798	11.90222000	11.90222000
-0.98521798	11.90222000	11.90222000
-0.98021798	11.90222000	11.90222000
-0.97521798	11.90222000	11.90222000
-0.97021798	11.90222000	11.90222000
-0.96521798	11.90222000	11.90222000
-0.96021798	11.90222000	11.90222000
-0.95521798	11.90222000	11.90222000
-0.95021798	11.90222000	11.90222000
-0.94521798	11.90222000	11.90222000
-0.94021798	11.90222000	11.90222000
-0.93521798	11.90222000	11.90222000
-0.93021798	11.90222000	11.90222000
-0.92521798	11.90222000	11.90222000
-0.92021798	11.90222000	11.90222000
-0.91521798	11.90222000	11.90222000
-0.91021798	11.90222000	11.84118000
-0.90521798	11.90222000	11.61229000
-0.90021798	11.90222000	12.72622000
-0.89521798	11.90222000	15.04562000
-0.89021798	11.90222000	16.22059000
-0.88521798	11.90222000	16.22059000
-0.88021798	11.90222000	15.04562000
-0.87521798	11.90222000	12.72622000
-0.87021798	11.90222000	11.61229000
-0.86521798	11.90222000	11.84118000
-0.86021798	11.90222000	11.84118000
-0.85521798	11.90222000	11.61229000
-0.85021798	11.90222000	12.72622000
-0.84521798	11.90222000	15.04562000
-0.84021798	11.90222000	16.15955000
-0.83521798	11.90222000	15.93066000
-0.83021798	11.90222000	15.86962000
-0.82521798	11.90222000	15.86962000
-0.82021798	11.90222000	15.86962000
-0.81521798	11.90222000	15.86962000
-0.81021798	11.90222000	15.86962000
-0.80521798	11.90222000	15.86962000
-0.80021798	11.90222000	15.86962000
-0.79521798	11.90222000	15.86962000
-0.79021798	11.90222000	15.86962000
-0.78521798	11.90222000	15.86962000
-0.78021798	11.90222000	15.86962000
-0.77521798	11.90222000	15.86962000
-0.77021798	11.90222000	15.86962000
-0.76521798	11.90222000	15.86962000
-0.76021798	11.90222000	15.86962000
-0.75521798	11.90222000	15.86962000
-0.75021798	11.90222000	15.86962000
-0.74521798	11.90222000	15.86962000
-0.74021798	11.90222000	15.86962000
-0.73521798	11.90222000	15.86962000
-0.73021798	11.90222000	15.93066000
-0.72521798	11.90222000	16.15955000
-0.72021798	11.90222000	14.98459000
-0.71521798	11.90222000	12.43629000
-0.71021798	11.90222000	12.43629000
-0.70521798	11.90222000	14.98459000
-0.70021798	11.90222000	16.22059000
-0.69521798	11.90222000	16.22059000
-0.69021798	11.90222000	14.98459000
-0.68521799	11.90222000	12.43629000
-0.68021799	11.90222000	12.43629000
-0.67521799	11.90222000	14.98459000
-0.67021799	11.90222000	16.15955000
-0.66521799	11.90222000	15.93066000
-0.66021799	11.90222000	15.86962000
-0.65521799	11.90222000	15.86962000
-0.65021799	11.90222000	15.86962000
-0.64521799	11.90222000	15.86962000
-0.64021799	11.90222000	15.86962000
-0.63521799	11.90222000	15.86962000
-0.63021799	11.90222000	15.86962000
-0.62521799	11.90222000	15.86962000
-0.62021799	11.90222000	15.86962000
-0.61521799	11.90222000	15.86962000
-0.61021799	11.90222000	15.86962000
-0.60521799	11.90222000	15.86962000
-0.60021799	11.90222000	15.86962000
-0.59521799	11.90222000	15.86962000
-0.59021799	11.90222000	15.86962000
-0.58521799	11.90222000	15.86962000
-0.58021799	11.90222000	15.86962000
-0.57521799	11.90222000	15.86962000
-0.57021799	11.90222000	15.86962000
-0.56521799	11.90222000	15.86962000
-0.56021799	11.90222000	15.86962000
-0.55521799	11.90222000	15.86962000
-0.55021799	11.90222000	15.86962000
-0.54521799	11.90222000	15.86962000
-0.54021799	11.90222000	15.86962000
-0.53521799	11.90222000	15.86962000
-0.53021799	11.90222000	15.93066000
-0.52521799	11.90222000	16.15955000
-0.52021799	11.90222000	15.04562000
-0.51521799	11.90222000	12.72622000
-0.51021799	11.90222000	11.55125000
-0.50521799	11.90222000	11.55125000
-0.50021799	11.90222000	12.72622000
-0.49521799	11.90222000	15.04562000
-0.49021799	11.90222000	16.15955000
-0.48521799	11.90222000	15.93066000
-0.48021799	11.90222000	15.86962000
-0.47521799	11.90222000	15.86962000
-0.47021799	11.90222000	15.86962000
-0.46521799	11.90222000	15.86962000
-0.46021799	11.90222000	15.86962000
-0.45521799	11.90222000	15.86962000
-0.45021799	11.90222000	15.86962000
-0.44521799	11.90222000	15.86962000
-0.44021799	11.90222000	15.86962000
-0.43521799	11.90222000	15.86962000
-0.43021799	11.90222000	15.86962000
-0.42521799	11.90222000	15.86962000
-0.42021799	11.90222000	15.86962000
-0.41521799	11.90222000	15.86962000
-0.41021799	11.90222000	15.86962000
-0.40521799	11.90222000	15.86962000
-0.40021799	11.90222000	15.86962000
-0.39521799	11.90222000	15.86962000
-0.39021799	11.90222000	15.86962000
-0.38521799	11.90222000	15.86962000
-0.38021799	11.90222000	15.86962000
-0.37521799	11.90222000	15.86962000
-0.37021799	11.90222000	15.86962000
-0.36521799	11.90222000	15.86962000
-0.36021799	11.90222000	15.86962000
-0.35521799	11.90222000	15.86962000
-0.35021799	11.90222000	15.86962000
-0.34521799	11.90222000	15.86962000
-0.34021799	11.90222000	15.86962000
-0.33521799	11.90222000	15.86962000
-0.33021799	11.90222000	15.93066000
-0.32521799	11.90222000	16.15955000
-0.32021799	11.90222000	14.98459000
-0.31521799	11.90222000	12.43629000
-0.31021799	11.90222000	12.43629000
-0.30521799	11.90222000	14.98459000
-0.30021799	11.90222000	16.15955000
-0.29521799	11.90222000	15.93066000
-0.29021799	11.90222000	15.86962000
-0.28521799	11.90222000	15.86962000
-0.28021799	11.90222000	15.86962000
-0.27521799	11.90222000	15.86962000
-0.27021799	11.90222000	15.86962000
-0.26521799	11.90222000	15.86962000
-0.26021799	11.90222000	15.86962000
-0.25521799	11.90222000	15.86962000
-0.25021799	11.90222000	15.86962000
-0.24521799	11.90222000	15.86962000
-0.24021799	11.90222000	15.86962000
-0.23521799	11.90222000	15.86962000
-0.23021799	11.90222000	15.86962000
-0.22521799	11.90222000	15.86962000
-0.22021799	11.90222000	15.86962000
-0.21521799	11.90222000	15.86962000
-0.21021799	11.90222000	15.93066000
-0.20521799	11.90222000	16.15955000
-0.20021799	11.90222000	15.04562000
-0.19521799	11.90222000	12.72622000
-0.19021799	11.90222000	11.55125000
-0.18521799	11.90222000	11.55125000
-0.18021799	11.90222000	12.78725000
-0.17521799	11.90222000	15.33555000
-0.17021799	11.90222000	15.33555000
-0.16521799	11.90222000	12.78725000
-0.16021799	11.90222000	11.61229000
-0.15521799	11.90222000	11.84118000
-0.15021799	11.90222000	11.90222000
-0.14521799	11.90222000	11.90222000
-0.14021799	11.90222000	11.90222000
-0.13521799	11.90222000	11.90222000
-0.13021799	11.90222000	11.90222000
-0.12521799	11.90222000	11.90222000
-0.12021799	11.90222000	11.90222000
-0.11521799	11.90222000	11.90222000
-0.11021799	11.90222000	11.90222000
-0.10521799	11.90222000	11.90222000
-0.10021799	11.84118000	11.90222000
-0.09521799	11.61229000	11.90222000
-0.09021799	12.66518000	11.90222000
-0.08521799	14.75570000	11.90222000
-0.08021799	16.81570000	11.96325000
-0.07521799	18.18903000	12.19214000
-0.07021799	22.43110000	11.13926000
-0.06521799	28.44325000	9.04873700
-0.06021799	34.91317000	6.82088700
-0.05521799	40.46754000	4.73036900
-0.05021799	46.81539000	3.67748000
-0.04521799	52.36976000	3.90636900
-0.04021799	58.77865000	3.96740600
-0.03521799	64.56190000	3.96740600
-0.03021799	69.79583000	4.02844300
-0.02521799	73.04604000	4.25733200
-0.02021799	78.34101000	3.14340600
-0.01521799	84.35316000	0.82399970
-0.01021799	89.64812000	-0.28992580
-0.00521799	92.88307000	-0.06103702
-0.00021799	98.11700000	0.00000000
0.00478201	103.90030000	0.00000000
0.00978201	110.30920000	0.00000000
0.01478201	115.86350000	0.00000000
0.01978201	122.21140000	0.00000000
0.02478201	127.76570000	0.00000000
0.02978201	134.17460000	0.00000000
0.03478201	139.97310000	0.00000000
0.03978201	145.20700000	0.00000000
0.04478201	148.44200000	0.00000000
0.04978201	153.73700000	0.00000000
0.05478201	159.74910000	0.00000000
0.05978201	165.10510000	-0.06103702
0.06478201	168.56900000	-0.28992580
0.06978201	172.75000000	0.82399970
0.07478201	176.44270000	3.14340600
0.07978201	180.62380000	4.25733200
0.08478201	184.08760000	4.02844300
0.08978201	189.44360000	3.96740600
0.09478201	195.45580000	3.96740600
0.09978201	200.81180000	3.96740600
0.10478201	204.27560000	3.96740600
0.10978201	208.51770000	3.96740600
0.11478201	212.45460000	3.96740600
0.11978201	215.58270000	3.96740600
0.12478201	216.95610000	3.96740600
0.12978201	220.14530000	3.96740600
0.13478201	224.29580000	3.96740600
0.13978201	227.54600000	3.96740600
0.14478201	229.14820000	3.96740600
0.14978201	231.16240000	3.96740600
0.15478201	232.76470000	3.96740600
0.15978201	236.06070000	3.96740600
0.16478201	240.47060000	3.96740600
0.16978201	242.57640000	3.96740600
0.17478201	241.88970000	3.96740600
0.17978201	242.88150000	3.96740600
0.18478201	245.20090000	3.96740600
0.18978201	246.31490000	3.96740600
0.19478201	246.08600000	3.96740600
0.19978201	246.02490000	3.96740600
0.20478201	246.02490000	3.96740600
0.20978201	246.14700000	3.90636900
0.21478201	246.60480000	3.67748000
0.21978201	244.43800000	4.79140600
0.22478201	240.02810000	7.11081200
0.22978201	236.79310000	8.22473800
0.23478201	235.41980000	7.99584900
0.23978201	232.23060000	7.87377500
0.24478201	228.08010000	7.64488600
0.24978201	224.82980000	8.75881200
0.25478201	223.22760000	11.07822000
0.25978201	221.21340000	12.19214000
0.26478201	219.61120000	11.96325000
0.26978201	216.36100000	11.90222000
0.27478201	212.19520000	11.90222000
0.27978201	208.94500000	11.90222000
0.28478201	207.34270000	11.90222000
0.28978201	205.28270000	11.90222000
0.29478201	203.42110000	11.90222000
0.29978201	201.31530000	11.96325000
0.30478201	199.45370000	12.19214000
0.30978201	197.34790000	11.07822000
0.31478201	195.48630000	8.75881200
0.31978201	193.31950000	7.64488600
0.32478201	191.22900000	7.87377500
0.32978201	190.23710000	7.93481200
0.33478201	190.69490000	7.93481200
0.33978201	189.70300000	7.99584900
0.34478201	187.61250000	8.22473800
0.34978201	185.38470000	7.11081200
0.35478201	183.29410000	4.79140600
0.35978201	182.30230000	3.67748000
0.36478201	182.76010000	3.90636900
0.36978201	181.70720000	3.96740600
0.37478201	179.38780000	3.96740600
0.37978201	178.33490000	3.96740600
0.38478201	178.79270000	3.96740600
0.38978201	177.73980000	3.96740600
0.39478201	175.42040000	3.96740600
0.39978201	174.30650000	3.96740600
0.40478201	174.53530000	3.96740600
0.40978201	174.59640000	3.96740600
0.41478201	174.59640000	3.96740600
0.41978201	174.65740000	3.96740600
0.42478201	174.88630000	3.96740600
0.42978201	173.77240000	3.90636900
0.43478201	171.45300000	3.67748000
0.43978201	170.33910000	4.79140600
0.44478201	170.56790000	7.11081200
0.44978201	170.62900000	8.22473800
0.45478201	170.62900000	7.99584900
0.45978201	170.62900000	7.93481200
0.46478201	170.62900000	7.93481200
0.46978201	170.62900000	7.93481200
0.47478201	170.62900000	7.93481200
0.47978201	170.69000000	7.93481200
0.48478201	170.91890000	7.93481200
0.48978201	169.80500000	7.93481200
0.49478201	167.48560000	7.93481200
0.49978201	166.37160000	7.93481200
0.50478201	166.60050000	7.93481200
0.50978201	166.66160000	7.93481200
0.51478201	166.66160000	7.93481200
0.51978201	166.66160000	7.93481200
0.52478201	166.66160000	7.93481200
0.52978201	166.66160000	7.93481200
0.53478201	166.66160000	7.93481200
0.53978201	166.72260000	7.93481200
0.54478201	166.95150000	7.93481200
0.54978201	165.83760000	7.93481200
0.55478201	163.51820000	7.93481200
0.55978201	162.40430000	7.93481200
0.56478201	162.63310000	7.93481200
0.56978201	162.75520000	7.87377500
0.57478201	162.98410000	7.64488600
0.57978201	161.80910000	8.75881200
0.58478201	159.26080000	11.07822000
0.58978201	159.32190000	12.19214000
0.59478201	162.09910000	11.96325000
0.59978201	162.16010000	11.90222000
0.60478201	159.61180000	11.90222000
0.60978201	158.43680000	11.90222000
0.61478201	158.66570000	11.90222000
0.61978201	158.72680000	11.90222000
0.62478201	158.72680000	11.90222000
0.62978201	158.78780000	11.90222000
0.63478201	159.01670000	11.90222000
0.63978201	157.90280000	11.90222000
0.64478201	155.58340000	11.90222000
0.64978201	154.46940000	11.90222000
0.65478201	154.69830000	11.90222000
0.65978201	154.75940000	11.90222000
0.66478201	154.75940000	11.90222000
0.66978201	154.75940000	11.90222000
0.67478201	154.75940000	11.90222000
0.67978201	154.82040000	11.90222000
0.68478201	155.04930000	11.90222000
0.68978201	153.93530000	11.90222000
0.69478201	151.61590000	11.90222000
0.69978201	150.50200000	11.90222000
0.70478201	150.73090000	11.90222000
0.70978201	150.79190000	11.90222000
0.71478201	150.79190000	11.90222000
0.71978201	150.79190000	11.90222000
0.72478201	150.79190000	11.90222000
0.72978201	150.79190000	11.96325000
0.73478201	150.79190000	12.19214000
0.73978201	150.79190000	11.07822000
0.74478201	150.79190000	8.75881200
0.74978201	150.85300000	7.64488600
0.75478201	151.08190000	7.87377500
0.75978201	149.96790000	7.87377500
0.76478201	147.64850000	7.64488600
0.76978201	146.53460000	8.75881200
0.77478201	146.76350000	11.07822000
0.77978201	146.82450000	12.19214000
0.78478201	146.82450000	11.96325000
0.78978201	146.82450000	11.90222000
0.79478201	146.82450000	11.90222000
0.79978201	146.88560000	11.90222000
0.80478201	147.11450000	11.90222000
0.80978201	146.00050000	11.90222000
0.81478201	143.68110000	11.90222000
0.81978201	142.56720000	11.90222000
0.82478201	142.79610000	11.90222000
0.82978201	142.85710000	11.90222000
0.83478201	142.85710000	11.90222000
0.83978201	142.85710000	11.90222000
0.84478201	142.85710000	11.90222000
0.84978201	142.85710000	11.90222000
0.85478201	142.85710000	11.90222000
0.85978201	142.91820000	11.90222000
0.86478201	143.14710000	11.90222000
0.86978201	142.03310000	11.90222000
0.87478201	139.69850000	11.90222000
0.87978201	138.58450000	11.90222000
0.88478201	138.81340000	11.90222000
0.88978201	138.87450000	11.90222000
0.89478201	138.87450000	11.90222000
0.89978201	138.87450000	11.90222000
0.90478201	138.87450000	11.90222000
0.90978201	138.87450000	11.90222000
0.91478201	138.87450000	11.90222000
0.91978201	138.87450000	11.90222000
0.92478201	138.87450000	11.90222000
0.92978201	138.93550000	11.90222000
0.93478201	139.16440000	11.90222000
0.93978201	138.05050000	11.90222000
0.94478201	135.73110000	11.90222000
0.94978201	134.61710000	11.90222000
0.95478201	134.84600000	11.90222000
0.95978200	134.90710000	11.84118000
0.96478200	134.90710000	11.61229000
0.96978200	134.90710000	12.78725000
0.97478200	134.90710000	15.33555000
0.97978200	134.90710000	15.27451000
0.98478200	134.90710000	12.49733000
0.98978200	134.90710000	12.43629000
0.99478200	134.90710000	14.98459000
0.99978200	134.96810000	16.15955000
1.00478200	135.19700000	15.93066000
1.00978200	134.08310000	15.86962000
1.01478200	131.76370000	15.86962000
1.01978200	130.64970000	15.93066000
1.02478200	130.87860000	16.15955000
1.02978200	130.93970000	14.98459000
1.03478200	130.93970000	12.43629000
1.03978200	130.93970000	12.49733000
1.04478200	130.93970000	15.27451000
1.04978200	131.00070000	15.27451000
1.05478200	131.22960000	12.49733000
1.05978200	130.05460000	12.43629000
1.06478200	127.50630000	14.98459000
1.06978200	127.56740000	16.22059000
1.07478200	130.34450000	16.22059000
1.07978200	130.40560000	14.98459000
1.08478200	127.85730000	12.43629000
1.08978200	126.68230000	12.49733000
1.09478200	126.91120000	15.27451000
1.09978200	126.97230000	15.33555000
1.10478200	126.97230000	12.78725000
1.10978200	126.97230000	11.61229000
1.11478200	126.97230000	11.84118000
1.11978200	127.03330000	11.90222000
1.12478200	127.26220000	11.90222000
1.12978200	126.14820000	11.90222000
1.13478200	123.82880000	11.90222000
1.13978200	122.71490000	11.90222000
1.14478200	122.94380000	11.90222000
1.14978200	123.00480000	11.90222000
1.15478200	123.00480000	11.90222000
1.15978200	123.00480000	11.90222000
1.16478200	123.00480000	11.90222000
1.16978200	123.00480000	11.90222000
1.17478200	123.00480000	11.90222000
1.17978200	123.00480000	11.90222000
1.18478200	123.00480000	11.90222000
1.18978200	123.06590000	11.90222000
1.19478200	123.29480000	11.90222000
1.19978200	122.18080000	11.90222000
1.20478200	119.86140000	11.90222000
1.20978200	118.74750000	11.90222000
1.21478200	118.97640000	11.90222000
1.21978200	119.03740000	11.90222000
1.22478200	119.03740000	11.90222000
1.22978200	119.03740000	11.84118000
1.23478200	119.03740000	11.61229000
1.23978200	119.03740000	12.78725000
1.24478200	119.03740000	15.33555000
1.24978200	119.03740000	15.33555000
1.25478200	119.03740000	12.78725000
1.25978200	119.03740000	11.55125000
1.26478200	119.03740000	11.55125000
1.26978200	119.03740000	12.78725000
1.27478200	119.03740000	15.33555000
1.27978200	119.09850000	15.33555000
1.28478200	119.32740000	12.78725000
1.28978200	118.21340000	11.61229000
1.29478200	115.89400000	11.84118000
1.29978200	114.78010000	11.90222000
1.30478200	115.00900000	11.90222000
1.30978200	115.07000000	11.90222000
1.31478200	115.07000000	11.90222000
1.31978200	115.07000000	11.90222000
1.32478200	115.07000000	11.90222000
1.32978200	115.13110000	11.90222000
1.33478200	115.36000000	11.90222000
1.33978200	114.24600000	11.90222000
1.34478200	111.92660000	11.90222000
1.34978200	110.81270000	11.90222000
1.35478200	111.04160000	11.90222000
1.35978200	111.10260000	11.90222000
1.36478200	111.10260000	11.90222000
1.36978200	111.10260000	11.90222000
1.37478200	111.10260000	11.90222000
1.37978200	111.10260000	11.90222000
1.38478200	111.10260000	11.90222000
1.38978200	111.10260000	11.90222000
1.39478200	111.10260000	11.90222000
1.39978200	111.10260000	11.90222000
1.40478200	111.10260000	11.90222000
1.40978200	111.16370000	11.90222000
1.41478200	111.39250000	11.90222000
1.41978200	110.27860000	11.90222000
1.42478200	107.95920000	11.90222000
1.42978200	106.84530000	11.90222000
1.43478200	107.07420000	11.90222000
1.43978200	107.13520000	11.90222000
1.44478200	107.13520000	11.90222000
1.44978200	107.13520000	11.84118000
1.45478200	107.13520000	11.61229000
1.45978200	107.13520000	12.72622000
1.46478200	107.13520000	15.04562000
1.46978200	107.13520000	16.15955000
1.47478200	107.13520000	15.93066000
1.47978200	107.13520000	15.86962000
1.48478200	107.13520000	15.86962000
1.48978200	107.13520000	15.93066000
1.49478200	107.13520000	16.15955000
1.49978200	107.19630000	15.04562000
1.50478200	107.42510000	12.72622000
1.50978200	106.31120000	11.55125000
1.51478200	103.99180000	11.55125000
1.51978200	102.87790000	12.78725000
1.52478200	103.10680000	15.33555000
1.52978200	103.16780000	15.33555000
1.53478200	103.16780000	12.78725000
1.53978200	103.16780000	11.61229000
1.54478200	103.16780000	11.84118000
1.54978200	103.16780000	11.90222000
1.55478200	103.16780000	11.90222000
1.55978200	103.16780000	11.90222000
1.56478200	103.16780000	11.90222000
1.56978200	103.16780000	11.90222000
1.57478200	103.16780000	11.90222000
1.57978200	103.22890000	11.84118000
1.58478200	103.45770000	11.61229000
1.58978200	102.28280000	12.72622000
1.59478200	99.73448000	15.04562000
1.59978200	99.79552000	16.22059000
1.60478200	102.57270000	16.22059000
1.60978200	102.63370000	14.98459000
1.61478200	100.08540000	12.43629000
1.61978200	98.91048000	12.43629000
1.62478200	99.13937000	14.98459000
1.62978200	99.20041000	16.15955000
1.63478200	99.20041000	15.93066000
1.63978200	99.20041000	15.86962000
1.64478200	99.20041000	15.86962000
1.64978200	99.20041000	15.93066000
1.65478200	99.20041000	16.15955000
1.65978200	99.20041000	14.98459000
1.66478200	99.20041000	12.43629000
1.66978200	99.26145000	12.43629000
1.67478200	99.49034000	14.98459000
1.67978200	98.37641000	16.22059000
1.68478200	96.05700000	16.22059000
1.68978200	94.88204000	15.04562000
1.69478200	94.88204000	12.72622000
1.69978200	96.11804000	11.55125000
1.70478200	98.66634000	11.55125000
1.70978200	98.66634000	12.72622000
1.71478200	96.11804000	15.04562000
1.71978200	94.94308000	16.15955000
1.72478200	95.17197000	15.93066000
1.72978200	95.23300000	15.86962000
1.73478200	95.23300000	15.86962000
1.73978200	95.23300000	15.86962000
1.74478200	95.23300000	15.86962000
1.74978200	95.23300000	15.86962000
1.75478200	95.23300000	15.86962000
1.75978200	95.23300000	15.86962000
1.76478200	95.23300000	15.86962000
1.76978200	95.23300000	15.86962000
1.77478200	95.23300000	15.86962000
1.77978200	95.23300000	15.86962000
1.78478200	95.23300000	15.86962000
1.78978200	95.23300000	15.86962000
1.79478200	95.23300000	15.86962000
1.79978200	95.23300000	15.86962000
1.80478200	95.23300000	15.86962000
1.80978200	95.29404000	15.86962000
1.81478200	95.52293000	15.86962000
1.81978200	94.40900000	15.93066000
1.82478200	92.08959000	16.15955000
1.82978200	90.97568000	14.98459000
1.83478200	91.20457000	12.43629000
1.83978200	91.26560000	12.43629000
1.84478200	91.26560000	14.98459000
1.84978200	91.26560000	16.15955000
1.85478200	91.26560000	15.93066000
1.85978200	91.26560000	15.86962000
1.86478200	91.26560000	15.86962000
1.86978200	91.26560000	15.93066000
1.87478200	91.26560000	16.15955000
1.87978200	91.26560000	15.04562000
1.88478200	91.26560000	12.72622000
1.88978200	91.32664000	11.61229000
1.89478200	91.55552000	11.84118000
1.89978200	90.44160000	11.90222000
1.90478200	88.12219000	11.90222000
1.90978200	87.00826000	11.90222000
1.91478200	87.23715000	11.90222000
1.91978200	87.29819000	11.90222000
1.92478200	87.29819000	11.90222000
1.92978200	87.29819000	11.90222000
1.93478200	87.29819000	11.90222000
1.93978200	87.29819000	11.90222000
1.94478200	87.29819000	11.90222000
1.94978200	87.29819000	11.90222000
1.95478200	87.29819000	11.90222000
1.95978200	87.29819000	11.90222000
1.96478200	87.29819000	11.90222000
1.96978200	87.29819000	11.90222000
1.97478200	87.29819000	11.90222000
1.97978200	87.29819000	11.90222000
1.98478200	87.29819000	11.90222000
1.98978200	87.29819000	11.90222000
1.99478200	87.29819000	11.90222000
1.99978200	87.35923000	11.84118000
2.00478200	87.58812000	11.61229000
2.00978200	86.47419000	12.72622000
2.01478200	84.15479000	15.04562000
2.01978200	83.04086000	16.15955000
2.02478200	83.26974000	15.93066000
2.02978200	83.33078000	15.86962000
2.03478200	83.33078000	15.86962000
2.03978200	83.33078000	15.86962000
2.04478200	83.33078000	15.86962000
2.04978200	83.33078000	15.86962000
2.05478200	83.33078000	15.86962000
2.05978200	83.33078000	15.86962000
2.06478200	83.33078000	15.86962000
2.06978200	83.33078000	15.93066000
2.07478200	83.33078000	16.15955000
2.07978200	83.33078000	15.04562000
2.08478200	83.33078000	12.72622000
2.08978200	83.39182000	11.55125000
2.09478200	83.62070000	11.55125000
2.09978200	82.50678000	12.72622000
2.10478200	80.18738000	15.04562000
2.10978200	79.07346000	16.15955000
2.11478200	79.30235000	15.93066000
2.11978200	79.36338000	15.93066000
2.12478200	79.36338000	16.15955000
2.12978200	79.36338000	14.98459000
2.13478200	79.36338000	12.43629000
2.13978200	79.36338000	12.43629000
2.14478200	79.36338000	14.98459000
2.14978200	79.36338000	16.15955000
2.15478200	79.36338000	15.93066000
2.15978200	79.36338000	15.86962000
2.16478200	79.36338000	15.86962000
2.16978200	79.36338000	15.86962000
2.17478200	79.36338000	15.86962000
2.17978200	79.36338000	15.86962000
2.18478200	79.36338000	15.86962000
2.18978200	79.36338000	15.93066000
2.19478200	79.36338000	16.15955000
2.19978200	79.36338000	14.98459000
2.20478200	79.36338000	12.43629000
2.20978200	79.36338000	12.43629000
2.21478200	79.36338000	14.98459000
2.21978200	79.36338000	16.15955000
2.22478200	79.36338000	15.93066000
2.22978200	79.36338000	15.86962000
2.23478200	79.36338000	15.86962000
2.23978200	79.42442000	15.86962000
2.24478200	79.65331000	15.86962000
2.24978200	78.53938000	15.86962000
2.25478200	76.21997000	15.86962000
2.25978200	75.10605000	15.86962000
2.26478200	75.33494000	15.86962000
2.26978200	75.39597000	15.86962000
2.27478200	75.39597000	15.86962000
2.27978200	75.39597000	15.86962000
2.28478200	75.39597000	15.86962000
2.28978200	75.39597000	15.86962000
2.29478200	75.39597000	15.86962000
2.29978200	75.39597000	15.86962000
2.30478200	75.39597000	15.86962000
2.30978200	75.39597000	15.86962000
2.31478200	75.39597000	15.86962000
2.31978200	75.45701000	15.86962000
2.32478200	75.68590000	15.86962000
2.32978200	74.51093000	15.86962000
2.33478200	71.96265000	15.86962000
2.33978200	72.02368000	15.93066000
2.34478200	74.80086000	16.15955000
2.34978200	74.80086000	14.98459000
2.35478200	72.02368000	12.43629000
2.35978200	72.02368000	12.49733000
2.36478200	74.80086000	15.27451000
2.36978200	74.86190000	15.27451000
2.37478200	72.31360000	12.49733000
2.37978200	71.13864000	12.43629000
2.38478200	71.36753000	14.98459000
2.38978200	71.42857000	16.15955000
2.39478200	71.42857000	15.93066000
2.39978200	71.42857000	15.86962000
2.40478200	71.42857000	15.86962000
2.40978200	71.42857000	15.93066000
2.41478200	71.42857000	16.15955000
2.41978200	71.42857000	14.98459000
2.42478200	71.42857000	12.43629000
2.42978200	71.42857000	12.43629000
2.43478200	71.42857000	14.98459000
2.43978200	71.42857000	16.15955000
2.44478200	71.42857000	15.93066000
2.44978200	71.48961000	15.93066000
2.45478200	71.71850000	16.15955000
2.45978200	70.54353000	15.04562000
2.46478200	67.97997000	12.72622000
2.46978200	67.97997000	11.55125000
2.47478200	70.54353000	11.55125000
2.47978200	71.71850000	12.78725000
2.48478200	71.48961000	15.33555000
2.48978200	71.42857000	15.27451000
2.49478200	71.42857000	12.49733000
2.49978200	71.48961000	12.49733000
2.50478200	71.71850000	15.27451000
2.50978200	70.60457000	15.33555000
2.51478200	68.26991000	12.78725000
2.51978200	67.15598000	11.55125000
2.52478200	67.38486000	11.55125000
2.52978200	67.44590000	12.72622000
2.53478200	67.44590000	15.04562000
2.53978200	67.44590000	16.15955000
2.54478200	67.44590000	15.93066000
2.54978200	67.44590000	15.86962000
2.55478200	67.44590000	15.86962000
2.55978200	67.44590000	15.93066000
2.56478200	67.44590000	16.15955000
2.56978200	67.44590000	14.98459000
2.57478200	67.44590000	12.43629000
2.57978200	67.44590000	12.43629000
2.58478200	67.44590000	14.98459000
2.58978200	67.44590000	16.22059000
2.59478200	67.44590000	16.22059000
2.59978200	67.50694000	14.98459000
2.60478199	67.73582000	12.43629000
2.60978199	66.56087000	12.43629000
2.61478199	64.01257000	14.98459000
2.61978199	64.07360000	16.15955000
2.62478199	66.85079000	15.93066000
2.62978199	66.91183000	15.86962000
2.63478199	64.36353000	15.86962000
2.63978199	63.18857000	15.86962000
2.64478199	63.41746000	15.86962000
2.64978199	63.47850000	15.86962000
2.65478199	63.47850000	15.86962000
2.65978199	63.47850000	15.86962000
2.66478199	63.47850000	15.86962000
2.66978199	63.47850000	15.86962000
2.67478199	63.47850000	15.86962000
2.67978199	63.47850000	15.86962000
2.68478199	63.47850000	15.86962000
2.68978199	63.47850000	15.86962000
2.69478199	63.47850000	15.86962000
2.69978199	63.47850000	15.93066000
2.70478199	63.47850000	16.15955000
2.70978199	63.47850000	15.04562000
2.71478199	63.47850000	12.72622000
2.71978199	63.47850000	11.61229000
2.72478199	63.47850000	11.84118000
2.72978199	63.47850000	11.90222000
2.73478199	63.47850000	11.90222000
2.73978199	63.47850000	11.90222000
2.74478199	63.47850000	11.90222000
2.74978199	63.47850000	11.90222000
2.75478199	63.47850000	11.90222000
2.75978199	63.53953000	11.90222000
2.76478199	63.76842000	11.90222000
2.76978199	62.65450000	11.90222000
2.77478199	60.33509000	11.90222000
2.77978199	59.22116000	11.90222000
2.78478199	59.45005000	11.90222000
2.78978199	59.51109000	11.90222000
2.79478199	59.51109000	11.90222000
2.79978199	59.51109000	11.90222000
2.80478199	59.51109000	11.90222000
2.80978199	59.51109000	11.90222000
2.81478199	59.51109000	11.90222000
2.81978199	59.51109000	11.90222000
2.82478199	59.51109000	11.90222000
2.82978199	59.51109000	11.90222000
2.83478199	59.51109000	11.90222000
2.83978199	59.51109000	11.90222000
2.84478199	59.51109000	11.90222000
2.84978199	59.51109000	11.90222000
2.85478199	59.51109000	11.90222000
2.85978199	59.51109000	11.90222000
2.86478199	59.51109000	11.90222000
2.86978199	59.51109000	11.90222000
2.87478199	59.51109000	11.90222000
2.87978199	59.51109000	11.90222000
2.88478199	59.51109000	11.90222000
2.88978199	59.51109000	11.90222000
2.89478199	59.51109000	11.90222000
2.89978199	59.51109000	11.90222000
2.90478199	59.51109000	11.90222000
2.90978199	59.57213000	11.90222000
2.91478199	59.80102000	11.90222000
2.91978199	58.62605000	11.90222000
2.92478199	56.07775000	11.90222000
2.92978199	56.07775000	11.90222000
2.93478199	58.62605000	11.90222000
2.93978199	59.80102000	11.90222000
2.94478199	59.57213000	11.90222000
2.94978199	59.57213000	11.90222000
2.95478199	59.80102000	11.90222000
2.95978199	58.68709000	11.90222000
2.96478199	56.36768000	11.90222000
2.96978199	55.25376000	11.90222000
2.97478199	55.48264000	11.90222000
2.97978199	55.54368000	11.90222000
2.98478199	55.54368000	11.90222000
2.98978199	55.54368000	11.90222000
2.99478199	55.54368000	11.90222000
2.99978199	55.54368000	11.90222000
3.00478199	55.54368000	11.90222000
3.00978199	55.54368000	11.90222000
3.01478199	55.54368000	11.90222000
3.01978199	55.54368000	11.90222000
3.02478199	55.54368000	11.90222000
3.02978199	55.54368000	11.84118000
3.03478199	55.54368000	11.61229000
3.03978199	55.54368000	12.72622000
3.04478199	55.54368000	15.04562000
3.04978199	55.54368000	16.15955000
3.05478199	55.54368000	15.93066000
3.05978199	55.54368000	15.86962000
3.06478199	55.54368000	15.86962000
3.06978199	55.54368000	15.86962000
3.07478199	55.54368000	15.86962000
3.07978199	55.54368000	15.86962000
3.08478199	55.54368000	15.86962000
3.08978199	55.54368000	15.86962000
3.09478199	55.54368000	15.86962000
3.09978199	55.60472000	15.86962000
3.10478199	55.83361000	15.86962000
3.10978199	54.65865000	15.86962000
3.11478199	52.11035000	15.86962000
3.11978199	52.11035000	15.86962000
3.12478199	54.65865000	15.86962000
3.12978199	55.89465000	15.93066000
3.13478199	55.89465000	16.15955000
3.13978199	54.65865000	15.04562000
3.14478199	52.11035000	12.72622000
3.14978199	52.17139000	11.61229000
3.15478199	54.94857000	11.84118000
3.15978199	55.00961000	11.84118000
3.16478199	52.46132000	11.61229000
3.16978199	51.28635000	12.72622000
3.17478199	51.51524000	15.04562000
3.17978199	51.57627000	16.15955000
3.18478199	51.57627000	15.93066000
3.18978199	51.57627000	15.86962000
3.19478199	51.57627000	15.86962000
3.19978199	51.57627000	15.86962000
3.20478199	51.57627000	15.86962000
3.20978199	51.57627000	15.86962000
3.21478199	51.57627000	15.86962000
3.21978199	51.57627000	15.86962000
3.22478199	51.57627000	15.86962000
3.22978199	51.57627000	15.86962000
3.23478199	51.57627000	15.86962000
3.23978199	51.57627000	15.86962000
3.24478199	51.57627000	15.86962000
3.24978199	51.57627000	15.86962000
3.25478199	51.57627000	15.86962000
3.25978199	51.57627000	15.93066000
3.26478199	51.57627000	16.15955000
3.26978199	51.63731000	15.04562000
3.27478199	51.86620000	12.72622000
3.27978199	50.75228000	11.55125000
3.28478199	48.43287000	11.55125000
3.28978199	47.25791000	12.78725000
3.29478199	47.25791000	15.33555000
3.29978199	48.49391000	15.33555000
3.30478199	51.04220000	12.78725000
3.30978199	50.98117000	11.61229000
3.31478199	48.20398000	11.84118000
3.31978199	48.20398000	11.90222000
3.32478199	50.98117000	11.90222000
3.32978199	51.04220000	11.90222000
3.33478199	48.49391000	11.90222000
3.33978199	47.31895000	11.90222000
3.34478199	47.54784000	11.90222000
3.34978199	47.60887000	11.90222000
3.35478199	47.60887000	11.90222000
3.35978199	47.60887000	11.90222000
3.36478199	47.60887000	11.90222000
3.36978199	47.60887000	11.90222000
3.37478199	47.60887000	11.90222000
3.37978199	47.60887000	11.90222000
3.38478199	47.60887000	11.90222000
3.38978199	47.60887000	11.90222000
3.39478199	47.60887000	11.90222000
3.39978199	47.60887000	11.90222000
3.40478199	47.60887000	11.90222000
3.40978199	47.60887000	11.90222000
3.41478199	47.60887000	11.90222000
3.41978199	47.60887000	11.90222000
3.42478199	47.60887000	11.90222000
3.42978199	47.60887000	11.84118000
3.43478199	47.60887000	11.61229000
3.43978199	47.60887000	12.78725000
3.44478199	47.60887000	15.33555000
3.44978199	47.60887000	15.27451000
3.45478199	47.60887000	12.49733000
3.45978199	47.60887000	12.43629000
3.46478199	47.60887000	14.98459000
3.46978199	47.60887000	16.15955000
3.47478199	47.60887000	15.93066000
3.47978199	47.60887000	15.86962000
3.48478199	47.60887000	15.86962000
3.48978199	47.60887000	15.86962000
3.49478199	47.60887000	15.86962000
3.49978199	47.66991000	15.86962000
3.50478199	47.89880000	15.86962000
3.50978199	46.78487000	15.86962000
3.51478199	44.46547000	15.86962000
3.51978199	43.29050000	15.86962000
3.52478199	43.29050000	15.86962000
3.52978199	44.46547000	15.80859000
3.53478199	46.78487000	15.57970000
3.53978199	47.89880000	16.63259000
3.54478199	47.66991000	18.72310000
3.54978199	47.66991000	20.84414000
3.55478199	47.89880000	22.44636000
3.55978199	46.78487000	25.51347000
3.56478199	44.46547000	28.97732000
3.56978199	43.35154000	35.38621000
3.57478199	43.58043000	43.25998000
3.57978199	43.64147000	51.78991000
3.58478199	43.64147000	58.94650000
3.58978199	43.64147000	68.54457000
3.59478199	43.64147000	78.26472000
3.59978199	43.64147000	87.80175000
3.60478199	43.64147000	94.72945000
3.60978199	43.64147000	104.26650000
3.61478199	43.64147000	113.97140000
3.61978199	43.64147000	123.69150000
3.62478199	43.64147000	131.30590000
3.62978199	43.64147000	137.60800000
3.63478199	43.64147000	140.85820000
3.63978199	43.64147000	144.97820000
3.64478199	43.64147000	148.67090000
3.64978199	43.64147000	153.03500000
3.65478199	43.64147000	157.18560000
3.65978199	43.64147000	159.24560000
3.66478199	43.64147000	158.55890000
3.66978199	43.64147000	159.61180000
3.67478199	43.64147000	162.16010000
3.67978199	43.64147000	162.22110000
3.68478199	43.64147000	159.90170000
3.68978199	43.64147000	157.67390000
3.69478199	43.64147000	155.81220000
3.69978199	43.64147000	153.70650000
3.70478199	43.64147000	151.84480000
3.70978199	43.64147000	149.73910000
3.71478199	43.64147000	147.87740000
3.71978199	43.64147000	145.77170000
3.72478199	43.64147000	143.92530000
3.72978199	43.64147000	141.85000000
3.73478199	43.64147000	140.23250000
3.73978199	43.70250000	137.04340000
3.74478199	43.93139000	133.12170000
3.74978199	42.75643000	128.81860000
3.75478199	40.20813000	125.12590000
3.75978199	40.20813000	120.88380000
3.76478199	42.75643000	117.19110000
3.76978199	43.93139000	112.88800000
3.77478199	43.70250000	108.96630000
3.77978199	43.64147000	105.83820000
3.78478199	43.64147000	104.46490000
3.78978199	43.64147000	101.27570000
3.79478199	43.64147000	97.12515000
3.79978199	43.70250000	93.87492000
3.80478199	43.93139000	92.27271000
3.80978199	42.81747000	90.25849000
3.81478199	40.49806000	88.65627000
3.81978199	39.38414000	85.36027000
3.82478199	39.61302000	80.95035000
3.82978199	39.67406000	78.84457000
3.83478199	39.67406000	79.53123000
3.83978199	39.67406000	78.60042000
3.84478199	39.67406000	76.50990000
3.84978199	39.67406000	74.28204000
3.85478199	39.67406000	72.19153000
3.85978199	39.67406000	71.26072000
3.86478199	39.67406000	71.96265000
3.86978199	39.67406000	69.78057000
3.87478199	39.67406000	65.12650000
3.87978199	39.67406000	62.94442000
3.88478199	39.67406000	63.64635000
3.88978199	39.67406000	62.65450000
3.89478199	39.67406000	60.33509000
3.89978199	39.67406000	59.28220000
3.90478199	39.67406000	59.73998000
3.90978199	39.67406000	58.74813000
3.91478199	39.67406000	56.65761000
3.91978199	39.67406000	54.42976000
3.92478199	39.67406000	52.33924000
3.92978199	39.67406000	51.34739000
3.93478199	39.67406000	51.80516000
3.93978199	39.67406000	50.75228000
3.94478199	39.67406000	48.43287000
3.94978199	39.67406000	47.37998000
3.95478199	39.67406000	47.83776000
3.95978199	39.67406000	46.78487000
3.96478199	39.67406000	44.46547000
3.96978199	39.67406000	43.35154000
3.97478199	39.67406000	43.58043000
3.97978199	39.67406000	43.70250000
3.98478199	39.67406000	43.93139000
3.98978199	39.67406000	42.81747000
3.99478199	39.67406000	40.49806000
3.99978199	39.67406000	39.38414000
4.00478199	39.67406000	39.61302000
4.00978199	39.73510000	39.67406000
4.01478199	39.96399000	39.67406000
4.01978199	38.78902000	39.67406000
4.02478199	36.24073000	39.67406000
4.02978199	36.24073000	39.67406000
4.03478199	38.78902000	39.67406000
4.03978199	39.96399000	39.73510000
4.04478199	39.73510000	39.96399000
4.04978199	39.67406000	38.85006000
4.05478199	39.67406000	36.53065000
4.05978199	39.67406000	35.41673000
4.06478199	39.67406000	35.64562000
4.06978199	39.67406000	35.70665000
4.07478199	39.67406000	35.70665000
4.07978199	39.67406000	35.76769000
4.08478199	39.67406000	35.99658000
4.08978199	39.73510000	34.82162000
4.09478199	39.96399000	32.27332000
4.09978199	38.85006000	32.27332000
4.10478199	36.53065000	34.82162000
4.10978199	35.41673000	36.05762000
4.11478199	35.64562000	36.05762000
4.11978199	35.70665000	34.88266000
4.12478199	35.70665000	32.56325000
4.12978199	35.70665000	31.44932000
4.13478199	35.70665000	31.67821000
4.13978199	35.70665000	31.73925000
4.14478199	35.70665000	31.73925000
4.14978199	35.70665000	31.80028000
4.15478199	35.70665000	32.02917000
4.15978199	35.70665000	30.85421000
4.16478199	35.70665000	28.30592000
4.16978199	35.70665000	28.36695000
4.17478199	35.70665000	31.14414000
4.17978199	35.70665000	31.20517000
4.18478199	35.70665000	28.65688000
4.18978199	35.70665000	27.48192000
4.19478199	35.70665000	27.71080000
4.19978199	35.70665000	27.77184000
4.20478199	35.70665000	27.77184000
4.20978199	35.70665000	27.83288000
4.21478199	35.70665000	28.06177000
4.21978199	35.70665000	26.94784000
4.22478199	35.70665000	24.62844000
4.22978199	35.70665000	23.51451000
4.23478199	35.70665000	23.74340000
4.23978199	35.70665000	23.80444000
4.24478199	35.70665000	23.80444000
4.24978198	35.70665000	23.74340000
4.25478198	35.70665000	23.51451000
4.25978198	35.70665000	24.62844000
4.26478198	35.70665000	26.94784000
4.26978198	35.70665000	28.06177000
4.27478198	35.70665000	27.83288000
4.27978198	35.70665000	27.77184000
4.28478198	35.70665000	27.77184000
4.28978198	35.70665000	27.77184000
4.29478198	35.70665000	27.77184000
4.29978198	35.70665000	27.77184000
4.30478198	35.70665000	27.77184000
4.30978198	35.70665000	27.83288000
4.31478198	35.70665000	28.06177000
4.31978198	35.70665000	26.94784000
4.32478198	35.70665000	24.62844000
4.32978198	35.70665000	23.51451000
4.33478198	35.70665000	23.74340000
4.33978198	35.70665000	23.80444000
4.34478198	35.70665000	23.80444000
4.34978198	35.70665000	23.80444000
4.35478198	35.70665000	23.80444000
4.35978198	35.70665000	23.80444000
4.36478198	35.70665000	23.80444000
4.36978198	35.70665000	23.80444000
4.37478198	35.70665000	23.80444000
4.37978198	35.76769000	23.80444000
4.38478198	35.99658000	23.80444000
4.38978198	34.82162000	23.80444000
4.39478198	32.27332000	23.80444000
4.39978198	32.33436000	23.80444000
4.40478198	35.11155000	23.80444000
4.40978198	35.11155000	23.80444000
4.41478198	32.33436000	23.80444000
4.41978198	32.27332000	23.80444000
4.42478198	34.82162000	23.80444000
4.42978198	36.05762000	23.80444000
4.43478198	36.05762000	23.80444000
4.43978198	34.88266000	23.80444000
4.44478198	32.56325000	23.80444000
4.44978198	31.38828000	23.80444000
4.45478198	31.38828000	23.80444000
4.45978198	32.62428000	23.80444000
4.46478198	35.17258000	23.80444000
4.46978198	35.17258000	23.80444000
4.47478198	32.62428000	23.80444000
4.47978198	31.44932000	23.80444000
4.48478198	31.67821000	23.80444000
4.48978198	31.73925000	23.80444000
4.49478198	31.73925000	23.80444000
4.49978198	31.73925000	23.80444000
4.50478198	31.73925000	23.80444000
4.50978198	31.73925000	23.80444000
4.51478198	31.73925000	23.80444000
4.51978198	31.73925000	23.80444000
4.52478198	31.73925000	23.80444000
4.52978198	31.73925000	23.80444000
4.53478198	31.73925000	23.80444000
4.53978198	31.73925000	23.80444000
4.54478198	31.73925000	23.80444000
4.54978198	31.73925000	23.80444000
4.55478198	31.73925000	23.80444000
4.55978198	31.73925000	23.80444000
4.56478198	31.73925000	23.80444000
4.56978198	31.73925000	23.80444000
4.57478198	31.73925000	23.80444000
4.57978198	31.73925000	23.80444000
4.58478198	31.73925000	23.80444000
4.58978198	31.73925000	23.80444000
4.59478198	31.73925000	23.80444000
4.59978198	31.73925000	23.80444000
4.60478198	31.73925000	23.80444000
4.60978198	31.73925000	23.80444000
4.61478198	31.73925000	23.80444000
4.61978198	31.73925000	23.80444000
4.62478198	31.73925000	23.80444000
4.62978198	31.73925000	23.80444000
4.63478198	31.73925000	23.80444000
4.63978198	31.73925000	23.80444000
4.64478198	31.73925000	23.80444000
4.64978198	31.73925000	23.80444000
4.65478198	31.73925000	23.80444000
4.65978198	31.73925000	23.80444000
4.66478198	31.73925000	23.80444000
4.66978198	31.73925000	23.80444000
4.67478198	31.73925000	23.80444000
4.67978198	31.73925000	23.80444000
4.68478198	31.73925000	23.80444000
4.68978198	31.73925000	23.86547000
4.69478198	31.73925000	24.09436000
4.69978198	31.73925000	22.98043000
4.70478198	31.73925000	20.66103000
4.70978198	31.73925000	19.54710000
4.71478198	31.73925000	19.77599000
4.71978198	31.73925000	19.77599000
4.72478198	31.73925000	19.54710000
4.72978198	31.73925000	20.72207000
4.73478198	31.73925000	23.27036000
4.73978198	31.73925000	23.27036000
4.74478198	31.73925000	20.72207000
4.74978198	31.73925000	19.54710000
4.75478198	31.73925000	19.77599000
4.75978198	31.73925000	19.83703000
4.76478198	31.73925000	19.83703000
4.76978198	31.73925000	19.83703000
4.77478198	31.73925000	19.83703000
4.77978198	31.73925000	19.83703000
4.78478198	31.73925000	19.83703000
4.78978198	31.73925000	19.83703000
4.79478198	31.73925000	19.83703000
4.79978198	31.73925000	19.83703000
4.80478198	31.73925000	19.83703000
4.80978198	31.80028000	19.83703000
4.81478198	32.02917000	19.83703000
4.81978198	30.85421000	19.83703000
4.82478198	28.30592000	19.83703000
4.82978198	28.30592000	19.83703000
4.83478198	30.85421000	19.83703000
4.83978198	32.02917000	19.83703000
4.84478198	31.80028000	19.83703000
4.84978198	31.80028000	19.83703000
4.85478198	32.02917000	19.83703000
4.85978198	30.91525000	19.83703000
4.86478198	28.59584000	19.83703000
4.86978198	27.42088000	19.83703000
4.87478198	27.42088000	19.83703000
4.87978198	28.65688000	19.83703000
4.88478198	31.20517000	19.83703000
4.88978198	31.20517000	19.83703000
4.89478198	28.65688000	19.83703000
4.89978198	27.48192000	19.83703000
4.90478198	27.71080000	19.83703000
4.90978198	27.77184000	19.83703000
4.91478198	27.77184000	19.83703000
4.91978198	27.77184000	19.83703000
4.92478198	27.77184000	19.83703000
4.92978198	27.77184000	19.83703000
4.93478198	27.77184000	19.83703000
4.93978198	27.77184000	19.83703000
4.94478198	27.77184000	19.83703000
4.94978198	27.77184000	19.83703000
4.95478198	27.77184000	19.83703000
4.95978198	27.77184000	19.83703000
4.96478198	27.77184000	19.83703000
4.96978198	27.77184000	19.83703000
4.97478198	27.77184000	19.83703000
4.97978198	27.77184000	19.89807000
4.98478198	27.77184000	20.12696000
4.98978198	27.77184000	18.95199000
4.99478198	27.77184000	16.40370000
4.99978198	27.77184000	16.46474000
5.00478198	27.77184000	19.24192000
5.00978198	27.77184000	19.30296000
5.01478198	27.77184000	16.75466000
5.01978198	27.77184000	15.51866000
5.02478198	27.77184000	15.51866000
5.02978198	27.77184000	16.75466000
5.03478198	27.77184000	19.30296000
5.03978198	27.77184000	19.24192000
5.04478198	27.77184000	16.46474000
5.04978198	27.77184000	16.46474000
5.05478198	27.77184000	19.24192000
5.05978198	27.77184000	19.24192000
5.06478198	27.77184000	16.46474000
5.06978198	27.77184000	16.46474000
5.07478198	27.77184000	19.24192000
5.07978198	27.77184000	19.24192000
5.08478198	27.77184000	16.46474000
5.08978198	27.77184000	16.40370000
5.09478198	27.77184000	18.95199000
5.09978198	27.77184000	20.12696000
5.10478198	27.77184000	19.89807000
5.10978198	27.77184000	19.83703000
5.11478198	27.77184000	19.83703000
5.11978198	27.77184000	19.89807000
5.12478198	27.77184000	20.12696000
5.12978198	27.77184000	18.95199000
5.13478198	27.77184000	16.40370000
5.13978198	27.77184000	16.46474000
5.14478198	27.77184000	19.24192000
5.14978198	27.77184000	19.24192000
5.15478198	27.77184000	16.46474000
5.15978198	27.83288000	16.40370000
5.16478198	28.06177000	18.95199000
5.16978198	26.88680000	20.12696000
5.17478198	24.33851000	19.89807000
5.17978198	24.33851000	19.89807000
5.18478198	26.88680000	20.12696000
5.18978198	28.06177000	18.95199000
5.19478198	27.83288000	16.40370000
5.19978198	27.83288000	16.40370000
5.20478198	28.06177000	18.95199000
5.20978198	26.88680000	20.12696000
5.21478198	24.33851000	19.89807000
5.21978198	24.39955000	19.89807000
5.22478198	27.17673000	20.12696000
5.22978198	27.23777000	19.01303000
5.23478198	24.68947000	16.69362000
5.23978198	23.45347000	15.51866000
5.24478198	23.45347000	15.51866000
5.24978198	24.62844000	16.69362000
5.25478198	26.94784000	19.01303000
5.25978198	28.12280000	20.12696000
5.26478198	28.12280000	19.89807000
5.26978198	26.94784000	19.83703000
5.27478198	24.62844000	19.83703000
5.27978198	23.51451000	19.83703000
5.28478198	23.74340000	19.83703000
5.28978198	23.80444000	19.89807000
5.29478198	23.80444000	20.12696000
5.29978198	23.80444000	19.01303000
5.30478198	23.80444000	16.69362000
5.30978198	23.80444000	15.57970000
5.31478198	23.80444000	15.80859000
5.31978198	23.80444000	15.86962000
5.32478198	23.80444000	15.86962000
5.32978198	23.74340000	15.80859000
5.33478198	23.51451000	15.57970000
5.33978198	24.62844000	16.75466000
5.34478198	26.94784000	19.30296000
5.34978198	28.12280000	19.30296000
5.35478198	28.12280000	16.75466000
5.35978198	26.94784000	15.57970000
5.36478198	24.62844000	15.80859000
5.36978198	23.51451000	15.86962000
5.37478198	23.74340000	15.86962000
5.37978198	23.74340000	15.86962000
5.38478198	23.51451000	15.86962000
5.38978198	24.68947000	15.86962000
5.39478198	27.23777000	15.86962000
5.39978198	27.23777000	15.86962000
5.40478198	24.68947000	15.86962000
5.40978198	23.51451000	15.86962000
5.41478198	23.74340000	15.86962000
5.41978198	23.80444000	15.86962000
5.42478198	23.80444000	15.86962000
5.42978198	23.80444000	15.86962000
5.43478198	23.80444000	15.86962000
5.43978198	23.80444000	15.86962000
5.44478198	23.80444000	15.86962000
5.44978198	23.80444000	15.86962000
5.45478198	23.80444000	15.86962000
5.45978198	23.80444000	15.86962000
5.46478198	23.80444000	15.86962000
5.46978198	23.80444000	15.86962000
5.47478198	23.80444000	15.86962000
5.47978198	23.80444000	15.86962000
5.48478198	23.80444000	15.86962000
5.48978198	23.80444000	15.80859000
5.49478198	23.80444000	15.57970000
5.49978198	23.80444000	16.75466000
5.50478198	23.80444000	19.30296000
5.50978198	23.80444000	19.30296000
5.51478198	23.80444000	16.75466000
5.51978198	23.80444000	15.57970000
5.52478198	23.80444000	15.80859000
5.52978198	23.80444000	15.86962000
5.53478198	23.80444000	15.86962000
5.53978198	23.80444000	15.86962000
5.54478198	23.80444000	15.86962000
5.54978198	23.80444000	15.86962000
5.55478198	23.80444000	15.86962000
5.55978198	23.80444000	15.86962000
5.56478198	23.80444000	15.86962000
5.56978198	23.80444000	15.86962000
5.57478198	23.80444000	15.86962000
5.57978198	23.80444000	15.86962000
5.58478198	23.80444000	15.86962000
5.58978198	23.80444000	15.86962000
5.59478198	23.80444000	15.86962000
5.59978198	23.80444000	15.86962000
5.60478198	23.80444000	15.86962000
5.60978198	23.80444000	15.86962000
5.61478198	23.80444000	15.86962000
5.61978198	23.80444000	15.86962000
5.62478198	23.80444000	15.86962000
5.62978198	23.80444000	15.86962000
5.63478198	23.80444000	15.86962000
5.63978198	23.80444000	15.86962000
5.64478198	23.80444000	15.86962000
5.64978198	23.80444000	15.86962000
5.65478198	23.80444000	15.86962000
5.65978198	23.80444000	15.86962000
5.66478198	23.80444000	15.86962000
5.66978198	23.80444000	15.86962000
5.67478198	23.80444000	15.86962000
5.67978198	23.80444000	15.86962000
5.68478198	23.80444000	15.86962000
5.68978198	23.80444000	15.86962000
5.69478198	23.80444000	15.86962000
5.69978198	23.80444000	15.86962000
5.70478198	23.80444000	15.86962000
5.70978198	23.80444000	15.86962000
5.71478198	23.80444000	15.86962000
5.71978198	23.80444000	15.86962000
5.72478198	23.80444000	15.86962000
5.72978198	23.80444000	15.86962000
5.73478198	23.80444000	15.86962000
5.73978198	23.80444000	15.86962000
5.74478198	23.80444000	15.86962000
5.74978198	23.80444000	15.80859000
5.75478198	23.80444000	15.57970000
5.75978198	23.80444000	16.75466000
5.76478198	23.80444000	19.30296000
5.76978198	23.80444000	19.30296000
5.77478198	23.80444000	16.75466000
5.77978198	23.80444000	15.57970000
5.78478198	23.80444000	15.80859000
5.78978198	23.80444000	15.86962000
5.79478198	23.80444000	15.86962000
5.79978198	23.80444000	15.86962000
5.80478198	23.80444000	15.86962000
5.80978198	23.80444000	15.86962000
5.81478198	23.80444000	15.86962000
5.81978198	23.80444000	15.86962000
5.82478198	23.80444000	15.86962000
5.82978198	23.80444000	15.86962000
5.83478198	23.80444000	15.86962000
5.83978198	23.80444000	15.86962000
5.84478198	23.80444000	15.86962000
5.84978198	23.80444000	15.86962000
5.85478198	23.80444000	15.86962000
5.85978198	23.86547000	15.86962000
5.86478198	24.09436000	15.86962000
5.86978198	22.91940000	15.86962000
5.87478198	20.37111000	15.86962000
5.87978198	20.43214000	15.86962000
5.88478198	23.20932000	15.86962000
5.88978198	23.27036000	15.86962000
5.89478197	20.72207000	15.86962000
5.89978197	19.48607000	15.86962000
5.90478197	19.48607000	15.86962000
5.90978197	20.72207000	15.86962000
5.91478197	23.27036000	15.86962000
5.91978197	23.27036000	15.86962000
5.92478197	20.72207000	15.86962000
5.92978197	19.54710000	15.86962000
5.93478197	19.77599000	15.86962000
5.93978197	19.83703000	15.86962000
5.94478197	19.83703000	15.86962000
5.94978197	19.77599000	15.86962000
5.95478197	19.54710000	15.86962000
5.95978197	20.72207000	15.86962000
5.96478197	23.27036000	15.86962000
5.96978197	23.27036000	15.86962000
5.97478197	20.72207000	15.86962000
5.97978197	19.48607000	15.86962000
5.98478197	19.48607000	15.86962000
5.98978197	20.72207000	15.86962000
5.99478197	23.27036000	15.86962000
5.99978197	23.27036000	15.86962000
6.00478197	20.72207000	15.86962000
6.00978197	19.54710000	15.86962000
6.01478197	19.77599000	15.86962000
6.01978197	19.83703000	15.86962000
6.02478197	19.83703000	15.86962000
6.02978197	19.83703000	15.86962000
6.03478197	19.83703000	15.86962000
6.03978197	19.83703000	15.86962000
6.04478197	19.83703000	15.86962000
6.04978197	19.83703000	15.86962000
6.05478197	19.83703000	15.86962000
6.05978197	19.83703000	15.86962000
6.06478197	19.83703000	15.86962000
6.06978197	19.83703000	15.86962000
6.07478197	19.83703000	15.86962000
6.07978197	19.83703000	15.86962000
6.08478197	19.83703000	15.86962000
6.08978197	19.83703000	15.86962000
6.09478197	19.83703000	15.86962000
6.09978197	19.83703000	15.86962000
6.10478197	19.83703000	15.86962000
6.10978197	19.83703000	15.86962000
6.11478197	19.83703000	15.86962000
6.11978197	19.83703000	15.86962000
6.12478197	19.83703000	15.86962000
6.12978197	19.83703000	15.86962000
6.13478197	19.83703000	15.86962000
6.13978197	19.83703000	15.86962000
6.14478197	19.83703000	15.86962000
6.14978197	19.83703000	15.86962000
6.15478197	19.83703000	15.86962000
6.15978197	19.83703000	15.86962000
6.16478197	19.83703000	15.86962000
6.16978197	19.83703000	15.86962000
6.17478197	19.83703000	15.86962000
6.17978197	19.83703000	15.86962000
6.18478197	19.83703000	15.86962000
6.18978197	19.83703000	15.86962000
6.19478197	19.83703000	15.86962000
6.19978197	19.83703000	15.86962000
6.20478197	19.83703000	15.86962000
6.20978197	19.83703000	15.86962000
6.21478197	19.83703000	15.86962000
6.21978197	19.83703000	15.86962000
6.22478197	19.83703000	15.86962000
6.22978197	19.83703000	15.86962000
6.23478197	19.83703000	15.86962000
6.23978197	19.83703000	15.86962000
6.24478197	19.83703000	15.86962000
6.24978197	19.83703000	15.86962000
6.25478197	19.83703000	15.86962000
6.25978197	19.83703000	15.86962000
6.26478197	19.83703000	15.86962000
6.26978197	19.83703000	15.86962000
6.27478197	19.83703000	15.86962000
6.27978197	19.83703000	15.86962000
6.28478197	19.83703000	15.86962000
6.28978197	19.83703000	15.86962000
6.29478197	19.83703000	15.86962000
6.29978197	19.83703000	15.86962000
6.30478197	19.83703000	15.86962000
6.30978197	19.83703000	15.86962000
6.31478197	19.83703000	15.86962000
6.31978197	19.83703000	15.86962000
6.32478197	19.83703000	15.86962000
6.32978197	19.83703000	15.86962000
6.33478197	19.83703000	15.86962000
6.33978197	19.83703000	15.86962000
6.34478197	19.83703000	15.86962000
6.34978197	19.83703000	15.86962000
6.35478197	19.83703000	15.86962000
6.35978197	19.83703000	15.86962000
6.36478197	19.83703000	15.86962000
6.36978197	19.83703000	15.86962000
6.37478197	19.83703000	15.86962000
6.37978197	19.83703000	15.86962000
6.38478197	19.83703000	15.86962000
6.38978197	19.83703000	15.86962000
6.39478197	19.83703000	15.86962000
6.39978197	19.83703000	15.86962000
6.40478197	19.83703000	15.86962000
6.40978197	19.83703000	15.86962000
6.41478197	19.83703000	15.86962000
6.41978197	19.83703000	15.86962000
6.42478197	19.83703000	15.86962000
6.42978197	19.83703000	15.86962000
6.43478197	19.83703000	15.86962000
6.43978197	19.83703000	15.86962000
6.44478197	19.83703000	15.86962000
6.44978197	19.83703000	15.86962000
6.45478197	19.83703000	15.86962000
6.45978197	19.83703000	15.86962000
6.46478197	19.83703000	15.86962000
6.46978197	19.83703000	15.86962000
6.47478197	19.83703000	15.86962000
6.47978197	19.83703000	15.86962000
6.48478197	19.83703000	15.86962000
6.48978197	19.83703000	15.86962000
6.49478197	19.83703000	15.86962000
6.49978197	19.83703000	15.93066000
6.50478197	19.83703000	16.15955000
6.50978197	19.83703000	14.98459000
6.51478197	19.83703000	12.43629000
6.51978197	19.83703000	12.43629000
6.52478197	19.83703000	14.98459000
6.52978197	19.83703000	16.22059000
6.53478197	19.83703000	16.22059000
6.53978197	19.83703000	14.98459000
6.54478197	19.83703000	12.43629000
6.54978197	19.83703000	12.43629000
6.55478197	19.83703000	14.98459000
6.55978197	19.83703000	16.15955000
6.56478197	19.83703000	15.93066000
6.56978197	19.83703000	15.93066000
6.57478197	19.83703000	16.15955000
6.57978197	19.83703000	15.04562000
6.58478197	19.83703000	12.72622000
6.58978197	19.83703000	11.61229000
6.59478197	19.83703000	11.84118000
6.59978197	19.89807000	11.90222000
6.60478197	20.12696000	11.90222000
6.60978197	18.95199000	11.90222000
6.61478197	16.40370000	11.90222000
6.61978197	16.40370000	11.90222000
6.62478197	18.95199000	11.90222000
6.62978197	20.12696000	11.90222000
6.63478197	19.89807000	11.90222000
6.63978197	19.83703000	11.90222000
6.64478197	19.83703000	11.90222000
6.64978197	19.83703000	11.84118000
6.65478197	19.83703000	11.61229000
6.65978197	19.83703000	12.72622000
6.66478197	19.83703000	15.04562000
6.66978197	19.83703000	16.15955000
6.67478197	19.83703000	15.93066000
6.67978197	19.83703000	15.86962000
6.68478197	19.83703000	15.86962000
6.68978197	19.83703000	15.86962000
6.69478197	19.83703000	15.86962000
6.69978197	19.83703000	15.86962000
6.70478197	19.83703000	15.86962000
6.70978197	19.83703000	15.93066000
6.71478197	19.83703000	16.15955000
6.71978197	19.83703000	14.98459000
6.72478197	19.83703000	12.43629000
6.72978197	19.83703000	12.43629000
6.73478197	19.83703000	14.98459000
6.73978197	19.83703000	16.22059000
6.74478197	19.83703000	16.22059000
6.74978197	19.89807000	15.04562000
6.75478197	20.12696000	12.72622000
6.75978197	18.95199000	11.61229000
6.76478197	16.40370000	11.84118000
6.76978197	16.40370000	11.84118000
6.77478197	18.95199000	11.61229000
6.77978197	20.12696000	12.72622000
6.78478197	19.89807000	15.04562000
6.78978197	19.83703000	16.22059000
6.79478197	19.83703000	16.22059000
6.79978197	19.83703000	14.98459000
6.80478197	19.83703000	12.43629000
6.80978197	19.89807000	12.49733000
6.81478197	20.12696000	15.27451000
6.81978197	19.01303000	15.33555000
6.82478197	16.69362000	12.78725000
6.82978197	15.51866000	11.55125000
6.83478197	15.51866000	11.55125000
6.83978197	16.69362000	12.78725000
6.84478197	19.01303000	15.33555000
6.84978197	20.12696000	15.33555000
6.85478197	19.89807000	12.78725000
6.85978197	19.89807000	11.61229000
6.86478197	20.12696000	11.84118000
6.86978197	18.95199000	11.90222000
6.87478197	16.40370000	11.90222000
6.87978197	16.46474000	11.84118000
6.88478197	19.24192000	11.61229000
6.88978197	19.30296000	12.72622000
6.89478197	16.75466000	15.04562000
6.89978197	15.57970000	16.15955000
6.90478197	15.80859000	15.93066000
6.90978197	15.86962000	15.86962000
6.91478197	15.86962000	15.86962000
6.91978197	15.86962000	15.86962000
6.92478197	15.86962000	15.86962000
6.92978197	15.86962000	15.86962000
6.93478197	15.86962000	15.86962000
6.93978197	15.86962000	15.86962000
6.94478197	15.86962000	15.86962000
6.94978197	15.80859000	15.86962000
6.95478197	15.57970000	15.86962000
6.95978197	16.69362000	15.86962000
6.96478197	19.01303000	15.86962000
6.96978197	20.18799000	15.86962000
6.97478197	20.18799000	15.86962000
6.97978197	19.01303000	15.86962000
6.98478197	16.69362000	15.86962000
6.98978197	15.57970000	15.86962000
6.99478197	15.80859000	15.86962000
6.99978197	15.86962000	15.86962000
7.00478197	15.86962000	15.86962000
7.00978197	15.86962000	15.86962000
7.01478197	15.86962000	15.86962000
7.01978197	15.86962000	15.86962000
7.02478197	15.86962000	15.86962000
7.02978197	15.80859000	15.93066000
7.03478197	15.57970000	16.15955000
7.03978197	16.75466000	15.04562000
7.04478197	19.30296000	12.72622000
7.04978197	19.30296000	11.61229000
7.05478197	16.75466000	11.84118000
7.05978197	15.57970000	11.90222000
7.06478197	15.80859000	11.90222000
7.06978197	15.86962000	11.90222000
7.07478197	15.86962000	11.90222000
7.07978197	15.86962000	11.90222000
7.08478197	15.86962000	11.90222000
7.08978197	15.86962000	11.84118000
7.09478197	15.86962000	11.61229000
7.09978197	15.86962000	12.72622000
7.10478197	15.86962000	15.04562000
7.10978197	15.86962000	16.15955000
7.11478197	15.86962000	15.93066000
7.11978197	15.86962000	15.86962000
7.12478197	15.86962000	15.86962000
7.12978197	15.86962000	15.86962000
7.13478197	15.86962000	15.86962000
7.13978197	15.86962000	15.86962000
7.14478197	15.86962000	15.86962000
7.14978197	15.86962000	15.86962000
7.15478197	15.86962000	15.86962000
7.15978197	15.86962000	15.86962000
7.16478197	15.86962000	15.86962000
7.16978197	15.86962000	15.86962000
7.17478197	15.86962000	15.86962000
7.17978197	15.86962000	15.86962000
7.18478197	15.86962000	15.86962000
7.18978197	15.86962000	15.86962000
7.19478197	15.86962000	15.86962000
7.19978197	15.86962000	15.86962000
7.20478197	15.86962000	15.86962000
7.20978197	15.86962000	15.86962000
7.21478197	15.86962000	15.86962000
7.21978197	15.86962000	15.86962000
7.22478197	15.86962000	15.86962000
7.22978197	15.86962000	15.86962000
7.23478197	15.86962000	15.86962000
7.23978197	15.86962000	15.86962000
7.24478197	15.86962000	15.86962000
7.24978197	15.86962000	15.86962000
7.25478197	15.86962000	15.86962000
7.25978197	15.86962000	15.86962000
7.26478197	15.86962000	15.86962000
7.26978197	15.86962000	15.86962000
7.27478197	15.86962000	15.86962000
7.27978197	15.86962000	15.86962000
7.28478197	15.86962000	15.86962000
7.28978197	15.86962000	15.86962000
7.29478197	15.86962000	15.86962000
7.29978197	15.86962000	15.86962000
7.30478197	15.86962000	15.86962000
7.30978197	15.86962000	15.86962000
7.31478197	15.86962000	15.86962000
7.31978197	15.86962000	15.86962000
7.32478197	15.86962000	15.86962000
7.32978197	15.86962000	15.86962000
7.33478197	15.86962000	15.86962000
7.33978197	15.86962000	15.86962000
7.34478197	15.86962000	15.86962000
7.34978197	15.86962000	15.86962000
7.35478197	15.86962000	15.86962000
7.35978197	15.86962000	15.86962000
7.36478197	15.86962000	15.86962000
7.36978197	15.86962000	15.86962000
7.37478197	15.86962000	15.86962000
7.37978197	15.86962000	15.86962000
7.38478197	15.86962000	15.86962000
7.38978197	15.86962000	15.86962000
7.39478197	15.86962000	15.86962000
7.39978197	15.86962000	15.86962000
7.40478197	15.86962000	15.86962000
7.40978197	15.86962000	15.86962000
7.41478197	15.86962000	15.86962000
7.41978197	15.86962000	15.93066000
7.42478197	15.86962000	16.15955000
7.42978197	15.86962000	14.98459000
7.43478197	15.86962000	12.43629000
7.43978197	15.86962000	12.49733000
7.44478197	15.86962000	15.27451000
7.44978197	15.86962000	15.33555000
7.45478197	15.86962000	12.78725000
7.45978197	15.86962000	11.55125000
7.46478197	15.86962000	11.55125000
7.46978197	15.86962000	12.78725000
7.47478197	15.86962000	15.33555000
7.47978197	15.86962000	15.33555000
7.48478197	15.86962000	12.78725000
7.48978197	15.86962000	11.61229000
7.49478197	15.86962000	11.84118000
7.49978197	15.86962000	11.90222000
7.50478197	15.86962000	11.90222000
7.50978197	15.86962000	11.84118000
7.51478197	15.86962000	11.61229000
7.51978197	15.86962000	12.78725000
7.52478197	15.86962000	15.33555000
7.52978197	15.86962000	15.33555000
7.53478197	15.86962000	12.78725000
7.53978196	15.86962000	11.61229000
7.54478196	15.86962000	11.84118000
7.54978196	15.86962000	11.90222000
7.55478196	15.86962000	11.90222000
7.55978196	15.86962000	11.90222000
7.56478196	15.86962000	11.90222000
7.56978196	15.86962000	11.90222000
7.57478196	15.86962000	11.90222000
7.57978196	15.86962000	11.84118000
7.58478196	15.86962000	11.61229000
7.58978196	15.86962000	12.72622000
7.59478196	15.86962000	15.04562000
7.59978196	15.86962000	16.22059000
7.60478196	15.86962000	16.22059000
7.60978196	15.86962000	14.98459000
7.61478196	15.86962000	12.43629000
7.61978196	15.86962000	12.49733000
7.62478196	15.86962000	15.27451000
7.62978196	15.86962000	15.33555000
7.63478196	15.86962000	12.78725000
7.63978196	15.86962000	11.61229000
7.64478196	15.86962000	11.84118000
7.64978196	15.86962000	11.90222000
7.65478196	15.86962000	11.90222000
7.65978196	15.86962000	11.90222000
7.66478196	15.86962000	11.90222000
7.66978196	15.86962000	11.90222000
7.67478196	15.86962000	11.90222000
7.67978196	15.86962000	11.90222000
7.68478196	15.86962000	11.90222000
7.68978196	15.86962000	11.90222000
7.69478196	15.86962000	11.90222000
7.69978196	15.86962000	11.90222000
7.70478196	15.86962000	11.90222000
7.70978196	15.86962000	11.90222000
7.71478196	15.86962000	11.90222000
7.71978196	15.86962000	11.90222000
7.72478196	15.86962000	11.90222000
7.72978196	15.86962000	11.90222000
7.73478196	15.86962000	11.90222000
7.73978196	15.86962000	11.90222000
7.74478196	15.86962000	11.90222000
7.74978196	15.86962000	11.90222000
7.75478196	15.86962000	11.90222000
7.75978196	15.86962000	11.90222000
7.76478196	15.86962000	11.90222000
7.76978196	15.86962000	11.84118000
7.77478196	15.86962000	11.61229000
7.77978196	15.86962000	12.78725000
7.78478196	15.86962000	15.33555000
7.78978196	15.86962000	15.33555000
7.79478196	15.86962000	12.78725000
7.79978196	15.86962000	11.61229000
7.80478196	15.86962000	11.84118000
7.80978196	15.86962000	11.90222000
7.81478196	15.86962000	11.90222000
7.81978196	15.86962000	11.90222000
7.82478196	15.86962000	11.90222000
7.82978196	15.86962000	11.90222000
7.83478196	15.86962000	11.90222000
7.83978196	15.86962000	11.90222000
7.84478196	15.86962000	11.90222000
7.84978196	15.86962000	11.90222000
7.85478196	15.86962000	11.90222000
7.85978196	15.86962000	11.90222000
7.86478196	15.86962000	11.90222000
7.86978196	15.86962000	11.90222000
7.87478196	15.86962000	11.90222000
7.87978196	15.86962000	11.90222000
7.88478196	15.86962000	11.90222000
7.88978196	15.86962000	11.90222000
7.89478196	15.86962000	11.90222000
7.89978196	15.86962000	11.90222000
7.90478196	15.86962000	11.90222000
7.90978196	15.86962000	11.90222000
7.91478196	15.86962000	11.90222000
7.91978196	15.86962000	11.90222000
7.92478196	15.86962000	11.90222000
7.92978196	15.86962000	11.90222000
7.93478196	15.86962000	11.90222000
7.93978196	15.86962000	11.90222000
7.94478196	15.86962000	11.90222000
7.94978196	15.86962000	11.90222000
7.95478196	15.86962000	11.90222000
7.95978196	15.86962000	11.90222000
7.96478196	15.86962000	11.90222000
7.96978196	15.86962000	11.90222000
7.97478196	15.86962000	11.90222000
7.97978196	15.86962000	11.90222000
7.98478196	15.86962000	11.90222000
7.98978196	15.86962000	11.90222000
7.99478196	15.86962000	11.90222000
7.99978196	15.86962000	11.90222000
8.00478196	15.86962000	11.90222000
8.00978196	15.86962000	11.90222000
8.01478196	15.86962000	11.90222000
8.01978196	15.86962000	11.90222000
8.02478196	15.86962000	11.90222000
8.02978196	15.86962000	11.90222000
8.03478196	15.86962000	11.90222000
8.03978196	15.86962000	11.90222000
8.04478196	15.86962000	11.90222000
8.04978196	15.86962000	11.90222000
8.05478196	15.86962000	11.90222000
8.05978196	15.86962000	11.90222000
8.06478196	15.86962000	11.90222000
8.06978196	15.86962000	11.90222000
8.07478196	15.86962000	11.90222000
8.07978196	15.86962000	11.90222000
8.08478196	15.86962000	11.90222000
8.08978196	15.86962000	11.90222000
8.09478196	15.86962000	11.90222000
8.09978196	15.86962000	11.90222000
8.10478196	15.86962000	11.90222000
8.10978196	15.86962000	11.90222000
8.11478196	15.86962000	11.90222000
8.11978196	15.86962000	11.90222000
8.12478196	15.86962000	11.90222000
8.12978196	15.86962000	11.84118000
8.13478196	15.86962000	11.61229000
8.13978196	15.86962000	12.78725000
8.14478196	15.86962000	15.33555000
8.14978196	15.86962000	15.27451000
8.15478196	15.86962000	12.49733000
8.15978196	15.86962000	12.49733000
8.16478196	15.86962000	15.27451000
8.16978196	15.86962000	15.27451000
8.17478196	15.86962000	12.49733000
8.17978196	15.86962000	12.49733000
8.18478196	15.86962000	15.27451000
8.18978196	15.86962000	15.27451000
8.19478196	15.86962000	12.49733000
8.19978196	15.86962000	12.49733000
8.20478196	15.86962000	15.27451000
8.20978196	15.86962000	15.33555000
8.21478196	15.86962000	12.78725000
8.21978196	15.86962000	11.61229000
8.22478196	15.86962000	11.84118000
8.22978196	15.86962000	11.90222000
8.23478196	15.86962000	11.90222000
8.23978196	15.86962000	11.90222000
8.24478196	15.86962000	11.90222000
8.24978196	15.86962000	11.90222000
8.25478196	15.86962000	11.90222000
8.25978196	15.86962000	11.90222000
8.26478196	15.86962000	11.90222000
8.26978196	15.86962000	11.90222000
8.27478196	15.86962000	11.90222000
8.27978196	15.86962000	11.90222000
8.28478196	15.86962000	11.90222000
8.28978196	15.86962000	11.90222000
8.29478196	15.86962000	11.90222000
8.29978196	15.86962000	11.90222000
8.30478196	15.86962000	11.90222000
8.30978196	15.86962000	11.90222000
8.31478196	15.86962000	11.90222000
8.31978196	15.86962000	11.90222000
8.32478196	15.86962000	11.90222000
8.32978196	15.86962000	11.90222000
8.33478196	15.86962000	11.90222000
8.33978196	15.86962000	11.90222000
8.34478196	15.86962000	11.90222000
8.34978196	15.86962000	11.90222000
8.35478196	15.86962000	11.90222000
8.35978196	15.86962000	11.90222000
8.36478196	15.86962000	11.90222000
8.36978196	15.86962000	11.90222000
8.37478196	15.86962000	11.90222000
8.37978196	15.86962000	11.90222000
8.38478196	15.86962000	11.90222000
8.38978196	15.86962000	11.90222000
8.39478196	15.86962000	11.90222000
8.39978196	15.86962000	11.90222000
8.40478196	15.86962000	11.90222000
8.40978196	15.86962000	11.90222000
8.41478196	15.86962000	11.90222000
8.41978196	15.86962000	11.90222000
8.42478196	15.86962000	11.90222000
8.42978196	15.86962000	11.90222000
8.43478196	15.86962000	11.90222000
8.43978196	15.86962000	11.90222000
8.44478196	15.86962000	11.90222000
8.44978196	15.86962000	11.90222000
8.45478196	15.86962000	11.90222000
8.45978196	15.86962000	11.90222000
8.46478196	15.86962000	11.90222000
8.46978196	15.86962000	11.90222000
8.47478196	15.86962000	11.90222000
8.47978196	15.86962000	11.90222000
8.48478196	15.86962000	11.90222000
8.48978196	15.86962000	11.90222000
8.49478196	15.86962000	11.90222000
8.49978196	15.86962000	11.90222000
8.50478196	15.86962000	11.90222000
8.50978196	15.93066000	11.90222000
8.51478196	16.15955000	11.90222000
8.51978196	14.98459000	11.90222000
8.52478196	12.43629000	11.90222000
8.52978196	12.43629000	11.90222000
8.53478196	14.98459000	11.90222000
8.53978196	16.15955000	11.90222000
8.54478196	15.93066000	11.90222000
8.54978196	15.86962000	11.90222000
8.55478196	15.86962000	11.90222000
8.55978196	15.86962000	11.90222000
8.56478196	15.86962000	11.90222000
8.56978196	15.86962000	11.90222000
8.57478196	15.86962000	11.90222000
8.57978196	15.93066000	11.90222000
8.58478196	16.15955000	11.90222000
8.58978196	14.98459000	11.90222000
8.59478196	12.43629000	11.90222000
8.59978196	12.43629000	11.90222000
8.60478196	14.98459000	11.90222000
8.60978196	16.15955000	11.90222000
8.61478196	15.93066000	11.90222000
8.61978196	15.86962000	11.90222000
8.62478196	15.86962000	11.90222000
8.62978196	15.86962000	11.90222000
8.63478196	15.86962000	11.90222000
8.63978196	15.86962000	11.90222000
8.64478196	15.86962000	11.90222000
8.64978196	15.86962000	11.90222000
8.65478196	15.86962000	11.90222000
8.65978196	15.86962000	11.90222000
8.66478196	15.86962000	11.90222000
8.66978196	15.86962000	11.90222000
8.67478196	15.86962000	11.90222000
8.67978196	15.86962000	11.90222000
8.68478196	15.86962000	11.90222000
8.68978196	15.86962000	11.90222000
8.69478196	15.86962000	11.90222000
8.69978196	15.93066000	11.90222000
8.70478196	16.15955000	11.90222000
8.70978196	15.04562000	11.90222000
8.71478196	12.72622000	11.90222000
8.71978196	11.55125000	11.90222000
8.72478196	11.55125000	11.90222000
8.72978196	12.78725000	11.90222000
8.73478196	15.33555000	11.90222000
8.73978196	15.27451000	11.90222000
8.74478196	12.49733000	11.90222000
8.74978196	12.49733000	11.90222000
8.75478196	15.27451000	11.90222000
8.75978196	15.27451000	11.90222000
8.76478196	12.49733000	11.90222000
8.76978196	12.49733000	11.90222000
8.77478196	15.27451000	11.90222000
8.77978196	15.27451000	11.90222000
8.78478196	12.49733000	11.90222000
8.78978196	12.49733000	11.90222000
8.79478196	15.27451000	11.90222000
8.79978196	15.33555000	11.90222000
8.80478196	12.78725000	11.90222000
8.80978196	11.55125000	11.90222000
8.81478196	11.55125000	11.90222000
8.81978196	12.72622000	11.90222000
8.82478196	15.04562000	11.90222000
8.82978196	16.15955000	11.90222000
8.83478196	15.93066000	11.90222000
8.83978196	15.93066000	11.90222000
8.84478196	16.15955000	11.90222000
8.84978196	14.98459000	11.90222000
8.85478196	12.43629000	11.90222000
8.85978196	12.49733000	11.90222000
8.86478196	15.27451000	11.90222000
8.86978196	15.27451000	11.90222000
8.87478196	12.49733000	11.90222000
8.87978196	12.43629000	11.90222000
8.88478196	14.98459000	11.90222000
8.88978196	16.15955000	11.90222000
8.89478196	15.93066000	11.90222000
8.89978196	15.93066000	11.90222000
8.90478196	16.15955000	11.90222000
8.90978196	15.04562000	11.90222000
8.91478196	12.72622000	11.90222000
8.91978196	11.61229000	11.90222000
8.92478196	11.84118000	11.90222000
8.92978196	11.90222000	11.90222000
8.93478196	11.90222000	11.90222000
8.93978196	11.84118000	11.90222000
8.94478196	11.61229000	11.90222000
8.94978196	12.78725000	11.84118000
8.95478196	15.33555000	11.61229000
8.95978196	15.33555000	12.78725000
8.96478196	12.78725000	15.33555000
8.96978196	11.61229000	15.33555000
8.97478196	11.84118000	12.78725000
8.97978196	11.90222000	11.61229000
8.98478196	11.90222000	11.84118000
8.98978196	11.84118000	11.90222000
8.99478196	11.61229000	11.90222000
8.99978196	12.72622000	11.90222000
9.00478196	15.04562000	11.90222000
9.00978196	16.15955000	11.90222000
9.01478196	15.93066000	11.90222000
9.01978196	15.86962000	11.84118000
9.02478196	15.86962000	11.61229000
