Time	Channel A	Channel B
(us)	(mV)	(mV)

-1.00680294	7.93481200	4.56251700
-1.00180294	7.93481200	7.33970100
-0.99680294	7.99584900	7.33970100
-0.99180294	8.22473800	4.56251700
-0.98680294	7.04977500	4.50148000
-0.98180294	4.50148000	7.04977500
-0.97680294	4.50148000	8.28577500
-0.97180294	7.04977500	8.28577500
-0.96680294	8.28577500	7.11081200
-0.96180294	8.28577500	4.79140600
-0.95680294	7.04977500	3.67748000
-0.95180294	4.50148000	3.90636900
-0.94680294	4.50148000	3.96740600
-0.94180294	7.04977500	3.96740600
-0.93680294	8.28577500	3.96740600
-0.93180294	8.28577500	3.96740600
-0.92680294	7.11081200	3.96740600
-0.92180294	4.79140600	3.96740600
-0.91680294	3.67748000	3.96740600
-0.91180294	3.90636900	3.96740600
-0.90680294	3.96740600	3.96740600
-0.90180294	3.96740600	3.96740600
-0.89680294	3.90636900	3.90636900
-0.89180294	3.67748000	3.67748000
-0.88680294	4.85244300	4.79140600
-0.88180294	7.40073800	7.11081200
-0.87680294	7.40073800	8.22473800
-0.87180294	4.85244300	7.99584900
-0.86680294	3.67748000	7.99584900
-0.86180295	3.90636900	8.22473800
-0.85680295	3.96740600	7.11081200
-0.85180295	3.96740600	4.79140600
-0.84680295	3.96740600	3.67748000
-0.84180295	3.96740600	3.90636900
-0.83680295	3.96740600	3.96740600
-0.83180295	3.96740600	3.96740600
-0.82680295	3.96740600	3.96740600
-0.82180295	3.96740600	3.96740600
-0.81680295	3.96740600	3.96740600
-0.81180295	3.96740600	3.96740600
-0.80680295	3.96740600	3.96740600
-0.80180295	3.96740600	3.96740600
-0.79680295	3.96740600	3.96740600
-0.79180295	3.96740600	3.96740600
-0.78680295	3.90636900	3.96740600
-0.78180295	3.67748000	3.96740600
-0.77680295	4.85244300	3.96740600
-0.77180295	7.40073800	3.96740600
-0.76680295	7.33970100	3.96740600
-0.76180295	4.56251700	3.96740600
-0.75680295	4.50148000	3.96740600
-0.75180295	7.04977500	3.96740600
-0.74680295	8.28577500	3.96740600
-0.74180295	8.28577500	3.96740600
-0.73680295	7.04977500	3.96740600
-0.73180295	4.50148000	3.96740600
-0.72680295	4.50148000	3.96740600
-0.72180295	7.04977500	3.96740600
-0.71680295	8.22473800	3.96740600
-0.71180295	7.99584900	3.96740600
-0.70680295	7.93481200	3.96740600
-0.70180295	7.93481200	3.96740600
-0.69680295	7.93481200	3.96740600
-0.69180295	7.93481200	3.96740600
-0.68680295	7.99584900	3.96740600
-0.68180295	8.22473800	3.96740600
-0.67680295	7.11081200	3.96740600
-0.67180295	4.79140600	3.96740600
-0.66680295	3.67748000	3.90636900
-0.66180295	3.90636900	3.67748000
-0.65680295	3.90636900	4.79140600
-0.65180295	3.67748000	7.11081200
-0.64680295	4.79140600	8.22473800
-0.64180295	7.11081200	7.99584900
-0.63680295	8.22473800	7.93481200
-0.63180295	7.99584900	7.93481200
-0.62680295	7.99584900	7.93481200
-0.62180295	8.22473800	7.93481200
-0.61680295	7.11081200	7.93481200
-0.61180295	4.79140600	7.93481200
-0.60680295	3.67748000	7.93481200
-0.60180295	3.90636900	7.93481200
-0.59680295	3.96740600	7.93481200
-0.59180295	3.96740600	7.93481200
-0.58680295	3.90636900	7.99584900
-0.58180295	3.67748000	8.22473800
-0.57680295	4.85244300	7.04977500
-0.57180295	7.40073800	4.50148000
-0.56680295	7.40073800	4.56251700
-0.56180295	4.85244300	7.33970100
-0.55680295	3.61644300	7.40073800
-0.55180295	3.61644300	4.85244300
-0.54680295	4.79140600	3.67748000
-0.54180295	7.11081200	3.90636900
-0.53680295	8.22473800	3.96740600
-0.53180295	7.99584900	3.96740600
-0.52680295	7.93481200	3.96740600
-0.52180295	7.93481200	3.96740600
-0.51680295	7.99584900	3.96740600
-0.51180295	8.22473800	3.96740600
-0.50680295	7.11081200	3.96740600
-0.50180295	4.79140600	3.96740600
-0.49680295	3.61644300	3.96740600
-0.49180295	3.61644300	3.96740600
-0.48680295	4.85244300	3.96740600
-0.48180295	7.40073800	3.96740600
-0.47680295	7.33970100	3.96740600
-0.47180295	4.56251700	3.96740600
-0.46680295	4.56251700	3.96740600
-0.46180295	7.33970100	3.96740600
-0.45680295	7.40073800	3.96740600
-0.45180295	4.85244300	3.96740600
-0.44680295	3.67748000	3.96740600
-0.44180295	3.90636900	3.96740600
-0.43680295	3.96740600	3.96740600
-0.43180295	3.96740600	3.96740600
-0.42680295	3.90636900	3.96740600
-0.42180295	3.67748000	3.96740600
-0.41680295	4.85244300	3.96740600
-0.41180295	7.40073800	3.96740600
-0.40680295	7.40073800	3.96740600
-0.40180295	4.85244300	3.96740600
-0.39680295	3.67748000	3.96740600
-0.39180295	3.90636900	3.96740600
-0.38680295	3.96740600	3.96740600
-0.38180295	3.96740600	3.96740600
-0.37680295	3.90636900	3.96740600
-0.37180295	3.67748000	3.96740600
-0.36680295	4.85244300	3.96740600
-0.36180295	7.40073800	3.96740600
-0.35680295	7.33970100	3.96740600
-0.35180295	4.56251700	3.96740600
-0.34680295	4.56251700	3.90636900
-0.34180295	7.33970100	3.67748000
-0.33680295	7.40073800	4.79140600
-0.33180295	4.85244300	7.11081200
-0.32680295	3.67748000	8.22473800
-0.32180295	3.90636900	7.99584900
-0.31680295	3.90636900	7.93481200
-0.31180295	3.67748000	7.93481200
-0.30680295	4.79140600	7.93481200
-0.30180295	7.11081200	7.93481200
-0.29680295	8.28577500	7.93481200
-0.29180295	8.28577500	7.93481200
-0.28680295	7.11081200	7.93481200
-0.28180295	4.79140600	7.93481200
-0.27680295	3.67748000	7.93481200
-0.27180295	3.90636900	7.93481200
-0.26680295	3.90636900	7.93481200
-0.26180295	3.67748000	7.93481200
-0.25680295	4.85244300	7.99584900
-0.25180295	7.40073800	8.22473800
-0.24680295	7.40073800	7.11081200
-0.24180295	4.85244300	4.79140600
-0.23680295	3.61644300	3.67748000
-0.23180295	3.61644300	3.90636900
-0.22680295	4.79140600	3.96740600
-0.22180295	7.11081200	3.96740600
-0.21680295	8.28577500	3.96740600
-0.21180295	8.28577500	3.96740600
-0.20680295	7.04977500	3.96740600
-0.20180295	4.50148000	3.96740600
-0.19680295	4.56251700	3.96740600
-0.19180295	7.33970100	3.96740600
-0.18680295	7.33970100	3.96740600
-0.18180295	4.56251700	3.96740600
-0.17680295	4.56251700	3.96740600
-0.17180295	7.33970100	3.96740600
-0.16680295	7.40073800	3.96740600
-0.16180295	4.85244300	3.96740600
-0.15680295	3.67748000	3.96740600
-0.15180295	3.90636900	3.96740600
-0.14680295	3.90636900	3.96740600
-0.14180295	3.67748000	3.96740600
-0.13680295	4.85244300	3.96740600
-0.13180295	7.40073800	3.96740600
-0.12680295	7.40073800	3.96740600
-0.12180295	4.85244300	3.96740600
-0.11680295	3.61644300	3.96740600
-0.11180295	3.61644300	3.96740600
-0.10680295	4.73036900	4.02844300
-0.10180295	6.82088700	4.25733200
-0.09680295	8.98770000	3.14340600
-0.09180295	10.84933000	0.82399970
-0.08680295	12.84829000	-0.28992580
-0.08180295	14.22162000	-0.06103702
-0.07680295	18.52473000	0.00000000
-0.07180295	24.76577000	0.00000000
-0.06680295	30.12177000	0.06103702
-0.06180295	33.35673000	0.28992580
-0.05680295	38.59065000	-0.82399970
-0.05180295	44.37391000	-3.14340600
-0.04680295	50.78279000	-4.25733200
-0.04180295	56.33717000	-4.02844300
-0.03680295	62.74605000	-3.90636900
-0.03180295	68.54457000	-3.67748000
-0.02680295	73.77849000	-4.79140600
-0.02180295	77.01345000	-7.11081200
-0.01680295	82.24738000	-8.22473800
-0.01180295	88.03064000	-7.99584900
-0.00680295	94.50056000	-7.93481200
-0.00180295	100.28380000	-7.93481200
0.00319705	105.51770000	-7.93481200
0.00819705	108.75270000	-7.93481200
0.01319705	113.98660000	-7.93481200
0.01819705	119.76990000	-7.93481200
0.02319705	126.23980000	-7.93481200
0.02819705	132.02310000	-7.93481200
0.03319705	137.25700000	-7.93481200
0.03819705	140.50720000	-7.93481200
0.04319705	145.80220000	-7.99584900
0.04819705	151.81430000	-8.22473800
0.05319705	157.10930000	-7.04977500
0.05819705	160.34420000	-4.50148000
0.06319705	165.63920000	-4.50148000
0.06819705	171.65140000	-7.04977500
0.07319705	177.00730000	-8.28577500
0.07819705	180.47120000	-8.28577500
0.08319705	184.65220000	-7.04977500
0.08819705	188.34500000	-4.50148000
0.09319705	192.58700000	-4.50148000
0.09819705	196.27980000	-7.04977500
0.10319705	200.58290000	-8.22473800
0.10819705	204.50450000	-7.99584900
0.11319705	207.63270000	-7.93481200
0.11819705	209.00600000	-7.93481200
0.12319705	212.19520000	-7.93481200
0.12819705	216.36100000	-7.93481200
0.13319705	219.61120000	-7.93481200
0.13819705	221.21340000	-7.93481200
0.14319705	223.27340000	-7.93481200
0.14819705	225.13500000	-7.93481200
0.15319705	227.30180000	-7.93481200
0.15819705	229.39240000	-7.93481200
0.16319705	230.38420000	-7.99584900
0.16819705	229.92640000	-8.22473800
0.17319705	231.04040000	-7.11081200
0.17819705	233.58870000	-4.79140600
0.18319705	233.58870000	-3.67748000
0.18819705	231.04040000	-3.90636900
0.19319705	229.98750000	-4.02844300
0.19819705	230.67410000	-4.25733200
0.20319705	228.56840000	-3.14340600
0.20819705	224.15840000	-0.82399970
0.21319705	220.92350000	0.28992580
0.21819705	219.55020000	0.06103702
0.22319705	216.36100000	-0.06103702
0.22819705	212.19520000	-0.28992580
0.23319705	208.94500000	0.82399970
0.23819705	207.34270000	3.14340600
0.24319705	205.28270000	4.25733200
0.24819705	203.42110000	4.02844300
0.25319705	201.36110000	3.96740600
0.25819705	199.75890000	3.96740600
0.26319705	196.50870000	3.96740600
0.26819705	192.35820000	3.96740600
0.27319705	189.10790000	4.02844300
0.27819705	187.50570000	4.25733200
0.28319705	185.38470000	3.14340600
0.28819705	183.29410000	0.82399970
0.29319705	182.30230000	-0.28992580
0.29819705	182.76010000	-0.06103702
0.30319705	181.76820000	0.00000000
0.30819705	179.67770000	0.00000000
0.31319705	177.51090000	0.00000000
0.31819705	175.64930000	0.00000000
0.32319705	173.48250000	0.06103702
0.32819705	171.39190000	0.28992580
0.33319705	170.40010000	-0.82399970
0.33819705	170.85790000	-3.14340600
0.34319705	169.80500000	-4.25733200
0.34819705	167.48560000	-4.02844300
0.35319705	166.43270000	-3.96740600
0.35819705	166.89050000	-3.96740600
0.36319705	165.83760000	-4.02844300
0.36819705	163.51820000	-4.25733200
0.37319705	162.40430000	-3.08236900
0.37819705	162.63310000	-0.53407390
0.38319705	162.75520000	-0.59511090
0.38819705	162.98410000	-3.37229500
0.39319705	161.87020000	-3.43333200
0.39819705	159.55080000	-0.88503670
0.40319705	158.43680000	0.28992580
0.40819705	158.66570000	0.06103702
0.41319705	158.72680000	0.00000000
0.41819705	158.72680000	0.00000000
0.42319705	158.72680000	0.00000000
0.42819705	158.72680000	0.00000000
0.43319705	158.78780000	0.00000000
0.43819705	159.01670000	0.00000000
0.44319705	157.90280000	0.00000000
0.44819705	155.58340000	0.00000000
0.45319705	154.46940000	0.00000000
0.45819705	154.69830000	0.00000000
0.46319705	154.75940000	0.00000000
0.46819705	154.75940000	0.00000000
0.47319705	154.75940000	0.00000000
0.47819705	154.75940000	0.00000000
0.48319705	154.75940000	-0.06103702
0.48819705	154.75940000	-0.28992580
0.49319705	154.75940000	0.82399970
0.49819705	154.75940000	3.14340600
0.50319705	154.82040000	4.25733200
0.50819705	155.04930000	4.02844300
0.51319705	153.93530000	3.96740600
0.51819705	151.61590000	3.96740600
0.52319705	150.50200000	3.96740600
0.52819705	150.73090000	3.96740600
0.53319705	150.79190000	4.02844300
0.53819705	150.79190000	4.25733200
0.54319705	150.85300000	3.08236900
0.54819705	151.08190000	0.53407390
0.55319705	149.96790000	0.59511090
0.55819705	147.64850000	3.37229500
0.56319705	146.53460000	3.37229500
0.56819705	146.76350000	0.59511090
0.57319705	146.82450000	0.53407390
0.57819705	146.82450000	3.08236900
0.58319705	146.82450000	4.25733200
0.58819705	146.82450000	4.02844300
0.59319705	146.88560000	3.96740600
0.59819705	147.11450000	3.96740600
0.60319705	146.00050000	3.96740600
0.60819705	143.68110000	3.96740600
0.61319705	142.56720000	3.96740600
0.61819705	142.79610000	3.96740600
0.62319705	142.85710000	3.96740600
0.62819705	142.85710000	3.96740600
0.63319705	142.85710000	3.96740600
0.63819705	142.85710000	3.96740600
0.64319705	142.85710000	3.96740600
0.64819705	142.85710000	3.96740600
0.65319705	142.85710000	3.96740600
0.65819705	142.85710000	3.96740600
0.66319705	142.91820000	3.96740600
0.66819705	143.14710000	3.96740600
0.67319705	142.03310000	4.02844300
0.67819705	139.69850000	4.25733200
0.68319705	138.58450000	3.08236900
0.68819705	138.81340000	0.53407390
0.69319705	138.87450000	0.59511090
0.69819705	138.87450000	3.37229500
0.70319705	138.93550000	3.43333200
0.70819705	139.16440000	0.88503670
0.71319705	138.05050000	-0.35096280
0.71819705	135.73110000	-0.35096280
0.72319705	134.61710000	0.82399970
0.72819705	134.84600000	3.14340600
0.73319705	134.90710000	4.25733200
0.73819705	134.90710000	4.02844300
0.74319705	134.90710000	3.96740600
0.74819705	134.90710000	3.96740600
0.75319705	134.90710000	3.96740600
0.75819705	134.90710000	3.96740600
0.76319705	134.90710000	3.96740600
0.76819705	134.90710000	3.96740600
0.77319705	134.96810000	3.96740600
0.77819705	135.19700000	3.96740600
0.78319704	134.02200000	3.96740600
0.78819704	131.47370000	3.96740600
0.79319704	131.53480000	3.96740600
0.79819704	134.31200000	3.96740600
0.80319704	134.37300000	3.96740600
0.80819704	131.82470000	3.96740600
0.81319704	130.64970000	3.96740600
0.81819704	130.87860000	3.96740600
0.82319704	131.00070000	3.96740600
0.82819704	131.22960000	3.96740600
0.83319704	130.05460000	3.96740600
0.83819704	127.50630000	3.96740600
0.84319704	127.56740000	3.96740600
0.84819704	130.34450000	3.96740600
0.85319704	130.40560000	3.96740600
0.85819704	127.85730000	3.96740600
0.86319704	126.68230000	3.90636900
0.86819704	126.91120000	3.67748000
0.87319704	126.97230000	4.85244300
0.87819704	126.97230000	7.40073800
0.88319704	126.97230000	7.40073800
0.88819704	126.97230000	4.85244300
0.89319704	127.03330000	3.67748000
0.89819704	127.26220000	3.90636900
0.90319704	126.14820000	3.96740600
0.90819704	123.82880000	3.96740600
0.91319704	122.71490000	3.96740600
0.91819704	122.94380000	3.96740600
0.92319704	123.00480000	3.96740600
0.92819704	123.00480000	3.96740600
0.93319704	123.00480000	3.96740600
0.93819704	123.00480000	3.96740600
0.94319704	123.06590000	3.96740600
0.94819704	123.29480000	3.96740600
0.95319704	122.11980000	3.96740600
0.95819704	119.57150000	3.96740600
0.96319704	119.63260000	3.96740600
0.96819704	122.40970000	3.96740600
0.97319704	122.47080000	3.96740600
0.97819704	119.92250000	3.96740600
0.98319704	118.74750000	3.96740600
0.98819704	118.97640000	3.96740600
0.99319704	119.03740000	3.96740600
0.99819704	119.03740000	3.96740600
1.00319704	119.09850000	3.96740600
1.00819704	119.32740000	3.96740600
1.01319704	118.15240000	3.96740600
1.01819704	115.60410000	3.96740600
1.02319704	115.66510000	3.96740600
1.02819704	118.44230000	3.96740600
1.03319704	118.50340000	3.96740600
1.03819704	115.95510000	3.96740600
1.04319704	114.78010000	3.96740600
1.04819704	115.00900000	3.96740600
1.05319704	115.07000000	3.96740600
1.05819704	115.07000000	3.96740600
1.06319704	115.07000000	3.96740600
1.06819704	115.07000000	3.96740600
1.07319704	115.07000000	3.96740600
1.07819704	115.07000000	3.96740600
1.08319704	115.13110000	3.96740600
1.08819704	115.36000000	3.96740600
1.09319704	114.24600000	3.96740600
1.09819704	111.92660000	3.96740600
1.10319704	110.81270000	3.96740600
1.10819704	111.04160000	3.96740600
1.11319704	111.10260000	3.96740600
1.11819704	111.10260000	3.96740600
1.12319704	111.10260000	3.96740600
1.12819704	111.10260000	3.96740600
1.13319704	111.10260000	3.96740600
1.13819704	111.10260000	3.96740600
1.14319704	111.10260000	3.96740600
1.14819704	111.10260000	3.96740600
1.15319704	111.16370000	3.96740600
1.15819704	111.39250000	3.96740600
1.16319704	110.27860000	3.96740600
1.16819704	107.95920000	3.96740600
1.17319704	106.84530000	3.96740600
1.17819704	107.07420000	3.96740600
1.18319704	107.13520000	3.96740600
1.18819704	107.13520000	3.96740600
1.19319704	107.13520000	3.96740600
1.19819704	107.13520000	3.96740600
1.20319704	107.13520000	3.96740600
1.20819704	107.13520000	3.96740600
1.21319704	107.13520000	3.96740600
1.21819704	107.13520000	3.96740600
1.22319704	107.13520000	3.96740600
1.22819704	107.13520000	3.96740600
1.23319704	107.13520000	3.96740600
1.23819704	107.13520000	3.96740600
1.24319704	107.19630000	3.96740600
1.24819704	107.42510000	3.96740600
1.25319704	106.31120000	3.96740600
1.25819704	103.99180000	3.96740600
1.26319704	102.87790000	3.96740600
1.26819704	103.10680000	3.96740600
1.27319704	103.16780000	3.96740600
1.27819704	103.16780000	3.96740600
1.28319704	103.16780000	3.96740600
1.28819704	103.16780000	3.96740600
1.29319704	103.16780000	3.96740600
1.29819704	103.16780000	3.96740600
1.30319704	103.16780000	3.96740600
1.30819704	103.16780000	3.96740600
1.31319704	103.16780000	3.96740600
1.31819704	103.16780000	3.96740600
1.32319704	103.22890000	3.96740600
1.32819704	103.45770000	3.96740600
1.33319704	102.34380000	3.96740600
1.33819704	100.02440000	3.96740600
1.34319704	98.91048000	3.90636900
1.34819704	99.13937000	3.67748000
1.35319704	99.20041000	4.79140600
1.35819704	99.20041000	7.11081200
1.36319704	99.20041000	8.22473800
1.36819704	99.20041000	7.99584900
1.37319704	99.20041000	7.99584900
1.37819704	99.20041000	8.22473800
1.38319704	99.26145000	7.04977500
1.38819704	99.49034000	4.50148000
1.39319704	98.37641000	4.50148000
1.39819704	96.05700000	7.04977500
1.40319704	94.94308000	8.22473800
1.40819704	95.17197000	7.99584900
1.41319704	95.23300000	7.93481200
1.41819704	95.23300000	7.93481200
1.42319704	95.23300000	7.99584900
1.42819704	95.23300000	8.22473800
1.43319704	95.23300000	7.04977500
1.43819704	95.23300000	4.50148000
1.44319704	95.23300000	4.50148000
1.44819704	95.23300000	7.04977500
1.45319704	95.23300000	8.22473800
1.45819704	95.23300000	7.99584900
1.46319704	95.23300000	7.99584900
1.46819704	95.23300000	8.22473800
1.47319704	95.23300000	7.11081200
1.47819704	95.23300000	4.79140600
1.48319704	95.29404000	3.67748000
1.48819704	95.52293000	3.90636900
1.49319704	94.40900000	3.96740600
1.49819704	92.08959000	3.96740600
1.50319704	90.97568000	3.96740600
1.50819704	91.20457000	3.96740600
1.51319704	91.26560000	3.96740600
1.51819704	91.26560000	3.96740600
1.52319704	91.26560000	3.96740600
1.52819704	91.26560000	3.96740600
1.53319704	91.26560000	3.96740600
1.53819704	91.26560000	3.96740600
1.54319704	91.26560000	3.96740600
1.54819704	91.26560000	3.96740600
1.55319704	91.32664000	3.96740600
1.55819704	91.55552000	3.96740600
1.56319704	90.38056000	3.96740600
1.56819704	87.83227000	3.96740600
1.57319704	87.83227000	3.96740600
1.57819704	90.38056000	3.96740600
1.58319704	91.61655000	3.96740600
1.58819704	91.61655000	3.96740600
1.59319704	90.44160000	3.96740600
1.59819704	88.12219000	3.96740600
1.60319704	87.00826000	3.96740600
1.60819704	87.23715000	3.96740600
1.61319704	87.29819000	3.96740600
1.61819704	87.29819000	3.96740600
1.62319704	87.29819000	3.96740600
1.62819704	87.29819000	3.96740600
1.63319704	87.29819000	3.96740600
1.63819704	87.29819000	3.96740600
1.64319704	87.29819000	3.96740600
1.64819704	87.29819000	3.96740600
1.65319704	87.35923000	3.96740600
1.65819704	87.58812000	3.96740600
1.66319704	86.41315000	3.96740600
1.66819704	83.86486000	3.96740600
1.67319704	83.92590000	3.96740600
1.67819704	86.70308000	3.96740600
1.68319704	86.76411000	3.96740600
1.68819704	84.21582000	3.96740600
1.69319704	83.04086000	3.96740600
1.69819704	83.26974000	3.96740600
1.70319704	83.33078000	3.90636900
1.70819704	83.33078000	3.67748000
1.71319704	83.33078000	4.85244300
1.71819704	83.33078000	7.40073800
1.72319704	83.33078000	7.40073800
1.72819704	83.33078000	4.85244300
1.73319704	83.33078000	3.67748000
1.73819704	83.33078000	3.90636900
1.74319704	83.33078000	3.96740600
1.74819704	83.33078000	3.96740600
1.75319704	83.33078000	3.96740600
1.75819704	83.33078000	3.96740600
1.76319704	83.39182000	3.96740600
1.76819704	83.62070000	3.96740600
1.77319704	82.50678000	3.90636900
1.77819704	80.18738000	3.67748000
1.78319704	79.07346000	4.79140600
1.78819704	79.30235000	7.11081200
1.79319704	79.36338000	8.22473800
1.79819704	79.36338000	7.99584900
1.80319704	79.36338000	7.93481200
1.80819704	79.36338000	7.93481200
1.81319704	79.36338000	7.99584900
1.81819704	79.36338000	8.22473800
1.82319704	79.36338000	7.04977500
1.82819704	79.36338000	4.50148000
1.83319704	79.36338000	4.50148000
1.83819704	79.36338000	7.04977500
1.84319704	79.36338000	8.28577500
1.84819704	79.36338000	8.28577500
1.85319704	79.42442000	7.11081200
1.85819704	79.65331000	4.79140600
1.86319704	78.47834000	3.67748000
1.86819704	75.93005000	3.90636900
1.87319704	75.93005000	3.96740600
1.87819704	78.47834000	3.96740600
1.88319704	79.71434000	3.96740600
1.88819704	79.71434000	3.96740600
1.89319704	78.53938000	3.96740600
1.89819704	76.21997000	3.96740600
1.90319704	75.10605000	3.96740600
1.90819704	75.33494000	3.96740600
1.91319704	75.39597000	3.96740600
1.91819704	75.39597000	3.96740600
1.92319704	75.39597000	3.96740600
1.92819704	75.39597000	3.96740600
1.93319704	75.39597000	3.96740600
1.93819704	75.39597000	3.96740600
1.94319704	75.39597000	3.96740600
1.94819704	75.39597000	3.96740600
1.95319704	75.39597000	3.96740600
1.95819704	75.39597000	3.96740600
1.96319704	75.39597000	3.96740600
1.96819704	75.39597000	3.96740600
1.97319704	75.45701000	3.90636900
1.97819704	75.68590000	3.67748000
1.98319704	74.57197000	4.85244300
1.98819704	72.25256000	7.40073800
1.99319704	71.13864000	7.40073800
1.99819704	71.36753000	4.85244300
2.00319704	71.42857000	3.67748000
2.00819704	71.42857000	3.90636900
2.01319704	71.42857000	3.96740600
2.01819704	71.42857000	3.96740600
2.02319704	71.42857000	3.96740600
2.02819704	71.42857000	3.96740600
2.03319704	71.42857000	3.96740600
2.03819704	71.42857000	3.96740600
2.04319704	71.42857000	3.96740600
2.04819704	71.42857000	3.96740600
2.05319704	71.42857000	3.90636900
2.05819704	71.42857000	3.67748000
2.06319704	71.42857000	4.79140600
2.06819704	71.42857000	7.11081200
2.07319704	71.42857000	8.22473800
2.07819704	71.42857000	7.99584900
2.08319704	71.42857000	7.93481200
2.08819704	71.42857000	7.93481200
2.09319704	71.48961000	7.93481200
2.09819704	71.71850000	7.93481200
2.10319704	70.54353000	7.93481200
2.10819704	67.97997000	7.93481200
2.11319704	67.97997000	7.93481200
2.11819704	70.54353000	7.93481200
2.12319704	71.77953000	7.99584900
2.12819704	71.77953000	8.22473800
2.13319704	70.60457000	7.04977500
2.13819704	68.26991000	4.50148000
2.14319704	67.15598000	4.56251700
2.14819704	67.38486000	7.33970100
2.15319704	67.44590000	7.33970100
2.15819704	67.44590000	4.56251700
2.16319704	67.44590000	4.50148000
2.16819704	67.44590000	7.04977500
2.17319704	67.44590000	8.22473800
2.17819704	67.44590000	7.99584900
2.18319704	67.44590000	7.93481200
2.18819704	67.44590000	7.93481200
2.19319704	67.44590000	7.93481200
2.19819704	67.44590000	7.93481200
2.20319704	67.44590000	7.93481200
2.20819704	67.44590000	7.93481200
2.21319704	67.44590000	7.93481200
2.21819704	67.44590000	7.93481200
2.22319704	67.50694000	7.93481200
2.22819704	67.73582000	7.93481200
2.23319704	66.62190000	7.93481200
2.23819704	64.30249000	7.93481200
2.24319704	63.18857000	7.93481200
2.24819704	63.41746000	7.93481200
2.25319704	63.47850000	7.93481200
2.25819704	63.47850000	7.93481200
2.26319704	63.47850000	7.93481200
2.26819704	63.47850000	7.93481200
2.27319704	63.47850000	7.99584900
2.27819704	63.47850000	8.22473800
2.28319704	63.47850000	7.04977500
2.28819704	63.47850000	4.50148000
2.29319704	63.47850000	4.56251700
2.29819704	63.47850000	7.33970100
2.30319704	63.47850000	7.40073800
2.30819704	63.47850000	4.85244300
2.31319704	63.47850000	3.67748000
2.31819704	63.47850000	3.90636900
2.32319704	63.47850000	3.96740600
2.32819704	63.47850000	3.96740600
2.33319704	63.47850000	3.96740600
2.33819704	63.47850000	3.96740600
2.34319704	63.53953000	3.96740600
2.34819704	63.76842000	3.96740600
2.35319704	62.65450000	3.96740600
2.35819704	60.33509000	3.96740600
2.36319704	59.22116000	3.96740600
2.36819704	59.45005000	3.96740600
2.37319704	59.51109000	3.96740600
2.37819704	59.51109000	3.96740600
2.38319704	59.51109000	3.96740600
2.38819704	59.51109000	3.96740600
2.39319704	59.51109000	3.96740600
2.39819704	59.51109000	3.96740600
2.40319704	59.51109000	3.96740600
2.40819704	59.51109000	3.96740600
2.41319704	59.51109000	3.96740600
2.41819704	59.51109000	3.96740600
2.42319704	59.51109000	3.96740600
2.42819703	59.51109000	3.96740600
2.43319703	59.51109000	3.96740600
2.43819703	59.51109000	3.96740600
2.44319703	59.51109000	3.96740600
2.44819703	59.51109000	3.96740600
2.45319703	59.51109000	3.96740600
2.45819703	59.51109000	3.96740600
2.46319703	59.51109000	3.96740600
2.46819703	59.51109000	3.96740600
2.47319703	59.51109000	3.96740600
2.47819703	59.51109000	3.96740600
2.48319703	59.51109000	3.96740600
2.48819703	59.51109000	3.96740600
2.49319703	59.57213000	3.90636900
2.49819703	59.80102000	3.67748000
2.50319703	58.68709000	4.79140600
2.50819703	56.36768000	7.11081200
2.51319703	55.19272000	8.28577500
2.51819703	55.19272000	8.28577500
2.52319703	56.42872000	7.11081200
2.52819703	58.97702000	4.79140600
2.53319703	58.97702000	3.67748000
2.53819703	56.42872000	3.90636900
2.54319703	55.25376000	3.96740600
2.54819703	55.48264000	3.96740600
2.55319703	55.54368000	3.96740600
2.55819703	55.54368000	3.96740600
2.56319703	55.54368000	3.96740600
2.56819703	55.54368000	3.96740600
2.57319703	55.54368000	3.90636900
2.57819703	55.54368000	3.67748000
2.58319703	55.54368000	4.85244300
2.58819703	55.54368000	7.40073800
2.59319703	55.54368000	7.33970100
2.59819703	55.54368000	4.56251700
2.60319703	55.54368000	4.50148000
2.60819703	55.54368000	7.04977500
2.61319703	55.54368000	8.22473800
2.61819703	55.54368000	7.99584900
2.62319703	55.54368000	7.93481200
2.62819703	55.54368000	7.93481200
2.63319703	55.60472000	7.99584900
2.63819703	55.83361000	8.22473800
2.64319703	54.65865000	7.04977500
2.64819703	52.11035000	4.50148000
2.65319703	52.11035000	4.50148000
2.65819703	54.65865000	7.04977500
2.66319703	55.89465000	8.28577500
2.66819703	55.89465000	8.28577500
2.67319703	54.71968000	7.11081200
2.67819703	52.40028000	4.79140600
2.68319703	51.28635000	3.67748000
2.68819703	51.51524000	3.90636900
2.69319703	51.57627000	3.96740600
2.69819703	51.57627000	3.96740600
2.70319703	51.57627000	3.90636900
2.70819703	51.57627000	3.67748000
2.71319703	51.57627000	4.79140600
2.71819703	51.57627000	7.11081200
2.72319703	51.57627000	8.28577500
2.72819703	51.57627000	8.28577500
2.73319703	51.57627000	7.04977500
2.73819703	51.57627000	4.50148000
2.74319703	51.57627000	4.50148000
2.74819703	51.57627000	7.04977500
2.75319703	51.57627000	8.22473800
2.75819703	51.57627000	7.99584900
2.76319703	51.63731000	7.93481200
2.76819703	51.86620000	7.93481200
2.77319703	50.75228000	7.93481200
2.77819703	48.43287000	7.93481200
2.78319703	47.25791000	7.93481200
2.78819703	47.25791000	7.93481200
2.79319703	48.49391000	7.93481200
2.79819703	51.04220000	7.93481200
2.80319703	50.98117000	7.93481200
2.80819703	48.20398000	7.93481200
2.81319703	48.20398000	7.93481200
2.81819703	50.98117000	7.93481200
2.82319703	50.98117000	7.93481200
2.82819703	48.20398000	7.93481200
2.83319703	48.14294000	7.93481200
2.83819703	50.69124000	7.93481200
2.84319703	51.92724000	7.93481200
2.84819703	51.92724000	7.93481200
2.85319703	50.75228000	7.93481200
2.85819703	48.43287000	7.93481200
2.86319703	47.31895000	7.93481200
2.86819703	47.54784000	7.93481200
2.87319703	47.60887000	7.93481200
2.87819703	47.60887000	7.93481200
2.88319703	47.60887000	7.93481200
2.88819703	47.60887000	7.93481200
2.89319703	47.60887000	7.93481200
2.89819703	47.60887000	7.93481200
2.90319703	47.60887000	7.99584900
2.90819703	47.60887000	8.22473800
2.91319703	47.60887000	7.04977500
2.91819703	47.60887000	4.50148000
2.92319703	47.60887000	4.50148000
2.92819703	47.60887000	7.04977500
2.93319703	47.60887000	8.28577500
2.93819703	47.60887000	8.28577500
2.94319703	47.60887000	7.11081200
2.94819703	47.60887000	4.79140600
2.95319703	47.60887000	3.61644300
2.95819703	47.60887000	3.61644300
2.96319703	47.60887000	4.79140600
2.96819703	47.60887000	7.11081200
2.97319703	47.60887000	8.22473800
2.97819703	47.60887000	7.99584900
2.98319703	47.66991000	7.93481200
2.98819703	47.89880000	7.93481200
2.99319703	46.72383000	7.93481200
2.99819703	44.17554000	7.93481200
3.00319703	44.23658000	7.93481200
3.00819703	47.01376000	7.93481200
3.01319703	47.07480000	7.93481200
3.01819703	44.52650000	7.93481200
3.02319703	43.35154000	7.93481200
3.02819703	43.58043000	7.93481200
3.03319703	43.64147000	7.93481200
3.03819703	43.64147000	7.93481200
3.04319703	43.64147000	7.93481200
3.04819703	43.64147000	7.93481200
3.05319703	43.64147000	7.93481200
3.05819703	43.64147000	7.93481200
3.06319703	43.64147000	7.93481200
3.06819703	43.64147000	7.93481200
3.07319703	43.64147000	7.93481200
3.07819703	43.64147000	7.93481200
3.08319703	43.64147000	7.93481200
3.08819703	43.64147000	7.93481200
3.09319703	43.64147000	7.93481200
3.09819703	43.64147000	7.93481200
3.10319703	43.64147000	7.93481200
3.10819703	43.64147000	7.93481200
3.11319703	43.64147000	7.93481200
3.11819703	43.64147000	7.93481200
3.12319703	43.64147000	7.93481200
3.12819703	43.64147000	7.93481200
3.13319703	43.64147000	7.93481200
3.13819703	43.64147000	7.93481200
3.14319703	43.64147000	7.93481200
3.14819703	43.64147000	7.93481200
3.15319703	43.64147000	7.93481200
3.15819703	43.64147000	7.93481200
3.16319703	43.64147000	7.93481200
3.16819703	43.64147000	7.93481200
3.17319703	43.64147000	7.93481200
3.17819703	43.64147000	7.93481200
3.18319703	43.64147000	7.93481200
3.18819703	43.64147000	7.93481200
3.19319703	43.70250000	7.99584900
3.19819703	43.93139000	8.22473800
3.20319703	42.81747000	7.11081200
3.20819703	40.49806000	4.79140600
3.21319703	39.38414000	3.67748000
3.21819703	39.61302000	3.90636900
3.22319703	39.67406000	3.96740600
3.22819703	39.67406000	3.96740600
3.23319703	39.67406000	3.96740600
3.23819703	39.67406000	3.96740600
3.24319703	39.67406000	3.96740600
3.24819703	39.67406000	3.96740600
3.25319703	39.67406000	3.90636900
3.25819703	39.67406000	3.67748000
3.26319703	39.67406000	4.85244300
3.26819703	39.67406000	7.40073800
3.27319703	39.67406000	7.33970100
3.27819703	39.67406000	4.56251700
3.28319703	39.67406000	4.56251700
3.28819703	39.67406000	7.33970100
3.29319703	39.67406000	7.40073800
3.29819703	39.67406000	4.85244300
3.30319703	39.67406000	3.67748000
3.30819703	39.67406000	3.90636900
3.31319703	39.67406000	3.96740600
3.31819703	39.67406000	3.96740600
3.32319703	39.67406000	3.96740600
3.32819703	39.67406000	3.96740600
3.33319703	39.67406000	3.96740600
3.33819703	39.67406000	3.96740600
3.34319703	39.67406000	3.96740600
3.34819703	39.67406000	3.96740600
3.35319703	39.67406000	3.96740600
3.35819703	39.67406000	3.96740600
3.36319703	39.67406000	3.96740600
3.36819703	39.67406000	3.96740600
3.37319703	39.67406000	3.96740600
3.37819703	39.67406000	3.96740600
3.38319703	39.67406000	3.96740600
3.38819703	39.67406000	3.96740600
3.39319703	39.73510000	3.90636900
3.39819703	39.96399000	3.67748000
3.40319703	38.78902000	4.79140600
3.40819703	36.24073000	7.11081200
3.41319703	36.24073000	8.22473800
3.41819703	38.78902000	7.99584900
3.42319703	40.02502000	7.93481200
3.42819703	40.02502000	7.93481200
3.43319703	38.78902000	7.93481200
3.43819703	36.24073000	7.93481200
3.44319703	36.30176000	7.93481200
3.44819703	39.07895000	7.93481200
3.45319703	39.13999000	7.93481200
3.45819703	36.59169000	7.93481200
3.46319703	35.35569000	7.99584900
3.46819703	35.35569000	8.22473800
3.47319703	36.53065000	7.04977500
3.47819703	38.85006000	4.50148000
3.48319703	40.02502000	4.50148000
3.48819703	40.02502000	7.04977500
3.49319703	38.85006000	8.28577500
3.49819703	36.53065000	8.28577500
3.50319703	35.41673000	7.04977500
3.50819703	35.64562000	4.50148000
3.51319703	35.70665000	4.44044300
3.51819703	35.70665000	6.75985000
3.52319703	35.70665000	8.98770000
3.52819703	35.70665000	10.84933000
3.53319703	35.70665000	12.90933000
3.53819703	35.70665000	14.51155000
3.54319703	35.70665000	17.57866000
3.54819703	35.70665000	21.04251000
3.55319703	35.70665000	27.45140000
3.55819703	35.70665000	35.32517000
3.56319703	35.70665000	43.79406000
3.56819703	35.70665000	50.72176000
3.57319703	35.70665000	61.37272000
3.57819703	35.70665000	73.18338000
3.58319703	35.70665000	84.94827000
3.58819703	35.70665000	93.96648000
3.59319703	35.70665000	104.49540000
3.59819703	35.70665000	113.74250000
3.60319703	35.70665000	124.45450000
3.60819703	35.70665000	134.15940000
3.61319703	35.70665000	142.64350000
3.61819703	35.70665000	147.72480000
3.62319703	35.70665000	154.02690000
3.62819703	35.70665000	159.81020000
3.63319703	35.70665000	165.10510000
3.63819703	35.70665000	168.56900000
3.64319703	35.70665000	172.87210000
3.64819703	35.70665000	177.02260000
3.65319703	35.70665000	179.14360000
3.65819703	35.70665000	178.68590000
3.66319703	35.70665000	178.56380000
3.66819703	35.70665000	178.56380000
3.67319703	35.70665000	178.62480000
3.67819703	35.70665000	178.85370000
3.68319703	35.70665000	177.86190000
3.68819703	35.70665000	176.00020000
3.69319703	35.70665000	172.76530000
3.69819703	35.70665000	168.84360000
3.70319703	35.76769000	164.47950000
3.70819703	35.99658000	160.55790000
3.71319703	34.82162000	157.42970000
3.71819703	32.27332000	156.05640000
3.72319703	32.33436000	152.92820000
3.72819703	35.11155000	149.00660000
3.73319703	35.11155000	144.70350000
3.73819703	32.33436000	140.99550000
3.74319703	32.33436000	136.75340000
3.74819703	35.11155000	133.06070000
3.75319703	35.17258000	128.81860000
3.75819703	32.62428000	125.12590000
3.76319703	31.44932000	120.82280000
3.76819703	31.67821000	116.90110000
3.77319703	31.73925000	113.77300000
3.77819703	31.73925000	112.39970000
3.78319703	31.73925000	109.21050000
3.78819703	31.73925000	105.06000000
3.79319703	31.73925000	101.80970000
3.79819703	31.73925000	100.20750000
3.80319703	31.73925000	98.14752000
3.80819703	31.73925000	96.28589000
3.81319703	31.73925000	94.22589000
3.81819703	31.73925000	92.62366000
3.82319703	31.73925000	89.37345000
3.82819703	31.73925000	85.22293000
3.83319703	31.73925000	81.97271000
3.83819703	31.73925000	80.37049000
3.84319703	31.73925000	78.24945000
3.84819703	31.73925000	76.15894000
3.85319703	31.73925000	75.22812000
3.85819703	31.73925000	75.93005000
3.86319703	31.73925000	73.74797000
3.86819703	31.73925000	69.09390000
3.87319703	31.73925000	66.91183000
3.87819703	31.73925000	67.61375000
3.88319703	31.73925000	66.68294000
3.88819703	31.73925000	64.59242000
3.89319703	31.73925000	62.42561000
3.89819703	31.73925000	60.56398000
3.90319703	31.73925000	58.39716000
3.90819703	31.73925000	56.30664000
3.91319703	31.73925000	55.31479000
3.91819703	31.73925000	55.77257000
3.92319703	31.73925000	54.71968000
3.92819703	31.73925000	52.40028000
3.93319703	31.73925000	51.28635000
3.93819703	31.73925000	51.51524000
3.94319703	31.73925000	51.63731000
3.94819703	31.73925000	51.86620000
3.95319703	31.73925000	50.81331000
3.95819703	31.73925000	48.72280000
3.96319703	31.73925000	46.49495000
3.96819703	31.73925000	44.40443000
3.97319703	31.80028000	43.35154000
3.97819703	32.02917000	43.58043000
3.98319703	30.85421000	43.70250000
3.98819703	28.30592000	43.93139000
3.99319703	28.30592000	42.81747000
3.99819703	30.85421000	40.49806000
4.00319703	32.09021000	39.38414000
4.00819703	32.09021000	39.61302000
4.01319703	30.85421000	39.73510000
4.01819703	28.30592000	39.96399000
4.02319703	28.36695000	38.85006000
4.02819703	31.14414000	36.53065000
4.03319703	31.20517000	35.41673000
4.03819703	28.65688000	35.64562000
4.04319703	27.48192000	35.70665000
4.04819703	27.71080000	35.70665000
4.05319703	27.77184000	35.70665000
4.05819703	27.77184000	35.70665000
4.06319703	27.77184000	35.76769000
4.06819703	27.77184000	35.99658000
4.07319703	27.77184000	34.88266000
4.07819702	27.77184000	32.56325000
4.08319702	27.77184000	31.44932000
4.08819702	27.77184000	31.67821000
4.09319702	27.77184000	31.80028000
4.09819702	27.77184000	32.02917000
4.10319702	27.77184000	30.85421000
4.10819702	27.77184000	28.30592000
4.11319702	27.77184000	28.36695000
4.11819702	27.77184000	31.14414000
4.12319702	27.77184000	31.20517000
4.12819702	27.77184000	28.65688000
4.13319702	27.77184000	27.48192000
4.13819702	27.77184000	27.71080000
4.14319702	27.77184000	27.77184000
4.14819702	27.77184000	27.77184000
4.15319702	27.77184000	27.77184000
4.15819702	27.77184000	27.77184000
4.16319702	27.77184000	27.77184000
4.16819702	27.77184000	27.77184000
4.17319702	27.77184000	27.77184000
4.17819702	27.77184000	27.77184000
4.18319702	27.77184000	27.83288000
4.18819702	27.77184000	28.06177000
4.19319702	27.77184000	26.88680000
4.19819702	27.77184000	24.33851000
4.20319702	27.77184000	24.33851000
4.20819702	27.77184000	26.88680000
4.21319702	27.77184000	28.12280000
4.21819702	27.77184000	28.12280000
4.22319702	27.77184000	26.94784000
4.22819702	27.77184000	24.62844000
4.23319702	27.77184000	23.51451000
4.23819702	27.77184000	23.74340000
4.24319702	27.77184000	23.80444000
4.24819702	27.77184000	23.80444000
4.25319702	27.77184000	23.80444000
4.25819702	27.77184000	23.80444000
4.26319702	27.77184000	23.86547000
4.26819702	27.77184000	24.09436000
4.27319702	27.77184000	22.98043000
4.27819702	27.77184000	20.66103000
4.28319702	27.77184000	19.54710000
4.28819702	27.77184000	19.77599000
4.29319702	27.77184000	19.83703000
4.29819702	27.77184000	19.83703000
4.30319702	27.77184000	19.83703000
4.30819702	27.77184000	19.83703000
4.31319702	27.77184000	19.83703000
4.31819702	27.77184000	19.83703000
4.32319702	27.77184000	19.83703000
4.32819702	27.77184000	19.83703000
4.33319702	27.77184000	19.83703000
4.33819702	27.77184000	19.83703000
4.34319702	27.77184000	19.83703000
4.34819702	27.77184000	19.83703000
4.35319702	27.77184000	19.83703000
4.35819702	27.77184000	19.83703000
4.36319702	27.77184000	19.89807000
4.36819702	27.77184000	20.12696000
4.37319702	27.83288000	19.01303000
4.37819702	28.06177000	16.69362000
4.38319702	26.94784000	15.51866000
4.38819702	24.62844000	15.51866000
4.39319702	23.51451000	16.75466000
4.39819702	23.74340000	19.30296000
4.40319702	23.80444000	19.30296000
4.40819702	23.80444000	16.75466000
4.41319702	23.74340000	15.51866000
4.41819702	23.51451000	15.51866000
4.42319702	24.68947000	16.75466000
4.42819702	27.23777000	19.30296000
4.43319702	27.23777000	19.30296000
4.43819702	24.68947000	16.75466000
4.44319702	23.51451000	15.51866000
4.44819702	23.74340000	15.51866000
4.45319702	23.80444000	16.69362000
4.45819702	23.80444000	19.01303000
4.46319702	23.80444000	20.12696000
4.46819702	23.80444000	19.89807000
4.47319702	23.80444000	19.83703000
4.47819702	23.80444000	19.83703000
4.48319702	23.80444000	19.83703000
4.48819702	23.80444000	19.83703000
4.49319702	23.74340000	19.83703000
4.49819702	23.51451000	19.83703000
4.50319702	24.68947000	19.83703000
4.50819702	27.23777000	19.83703000
4.51319702	27.23777000	19.83703000
4.51819702	24.68947000	19.83703000
4.52319702	23.51451000	19.83703000
4.52819702	23.74340000	19.83703000
4.53319702	23.80444000	19.89807000
4.53819702	23.80444000	20.12696000
4.54319702	23.80444000	19.01303000
4.54819702	23.80444000	16.69362000
4.55319702	23.80444000	15.57970000
4.55819702	23.80444000	15.80859000
4.56319702	23.80444000	15.86962000
4.56819702	23.80444000	15.86962000
4.57319702	23.80444000	15.86962000
4.57819702	23.80444000	15.86962000
4.58319702	23.80444000	15.86962000
4.58819702	23.80444000	15.86962000
4.59319702	23.80444000	15.86962000
4.59819702	23.80444000	15.86962000
4.60319702	23.80444000	15.86962000
4.60819702	23.80444000	15.86962000
4.61319702	23.80444000	15.86962000
4.61819702	23.80444000	15.86962000
4.62319702	23.80444000	15.86962000
4.62819702	23.80444000	15.86962000
4.63319702	23.80444000	15.86962000
4.63819702	23.80444000	15.86962000
4.64319702	23.80444000	15.86962000
4.64819702	23.80444000	15.86962000
4.65319702	23.80444000	15.86962000
4.65819702	23.80444000	15.86962000
4.66319702	23.80444000	15.86962000
4.66819702	23.80444000	15.86962000
4.67319702	23.80444000	15.86962000
4.67819702	23.80444000	15.86962000
4.68319702	23.80444000	15.86962000
4.68819702	23.80444000	15.86962000
4.69319702	23.80444000	15.86962000
4.69819702	23.80444000	15.86962000
4.70319702	23.80444000	15.86962000
4.70819702	23.80444000	15.86962000
4.71319702	23.80444000	15.86962000
4.71819702	23.80444000	15.86962000
4.72319702	23.80444000	15.86962000
4.72819702	23.80444000	15.86962000
4.73319702	23.80444000	15.86962000
4.73819702	23.80444000	15.86962000
4.74319702	23.80444000	15.86962000
4.74819702	23.80444000	15.86962000
4.75319702	23.86547000	15.86962000
4.75819702	24.09436000	15.86962000
4.76319702	22.91940000	15.86962000
4.76819702	20.37111000	15.86962000
4.77319702	20.37111000	15.86962000
4.77819702	22.91940000	15.86962000
4.78319702	24.09436000	15.86962000
4.78819702	23.86547000	15.86962000
4.79319702	23.80444000	15.86962000
4.79819702	23.80444000	15.86962000
4.80319702	23.86547000	15.86962000
4.80819702	24.09436000	15.86962000
4.81319702	22.91940000	15.86962000
4.81819702	20.37111000	15.86962000
4.82319702	20.43214000	15.86962000
4.82819702	23.20932000	15.86962000
4.83319702	23.20932000	15.86962000
4.83819702	20.43214000	15.86962000
4.84319702	20.43214000	15.86962000
4.84819702	23.20932000	15.86962000
4.85319702	23.27036000	15.86962000
4.85819702	20.72207000	15.86962000
4.86319702	19.54710000	15.86962000
4.86819702	19.77599000	15.86962000
4.87319702	19.83703000	15.86962000
4.87819702	19.83703000	15.86962000
4.88319702	19.77599000	15.86962000
4.88819702	19.54710000	15.86962000
4.89319702	20.72207000	15.93066000
4.89819702	23.27036000	16.15955000
4.90319702	23.27036000	14.98459000
4.90819702	20.72207000	12.43629000
4.91319702	19.54710000	12.43629000
4.91819702	19.77599000	14.98459000
4.92319702	19.83703000	16.22059000
4.92819702	19.83703000	16.22059000
4.93319702	19.77599000	15.04562000
4.93819702	19.54710000	12.72622000
4.94319702	20.72207000	11.61229000
4.94819702	23.27036000	11.84118000
4.95319702	23.20932000	11.90222000
4.95819702	20.43214000	11.90222000
4.96319702	20.43214000	11.90222000
4.96819702	23.20932000	11.90222000
4.97319702	23.27036000	11.90222000
4.97819702	20.72207000	11.90222000
4.98319702	19.54710000	11.90222000
4.98819702	19.77599000	11.90222000
4.99319702	19.83703000	11.90222000
4.99819702	19.83703000	11.90222000
5.00319702	19.83703000	11.90222000
5.00819702	19.83703000	11.90222000
5.01319702	19.83703000	11.90222000
5.01819702	19.83703000	11.90222000
5.02319702	19.83703000	11.90222000
5.02819702	19.83703000	11.90222000
5.03319702	19.83703000	11.90222000
5.03819702	19.83703000	11.90222000
5.04319702	19.83703000	11.90222000
5.04819702	19.83703000	11.90222000
5.05319702	19.83703000	11.84118000
5.05819702	19.83703000	11.61229000
5.06319702	19.83703000	12.72622000
5.06819702	19.83703000	15.04562000
5.07319702	19.83703000	16.15955000
5.07819702	19.83703000	15.93066000
5.08319702	19.83703000	15.86962000
5.08819702	19.83703000	15.86962000
5.09319702	19.83703000	15.93066000
5.09819702	19.83703000	16.15955000
5.10319702	19.83703000	15.04562000
5.10819702	19.83703000	12.72622000
5.11319702	19.83703000	11.55125000
5.11819702	19.83703000	11.55125000
5.12319702	19.83703000	12.72622000
5.12819702	19.83703000	15.04562000
5.13319702	19.83703000	16.22059000
5.13819702	19.83703000	16.22059000
5.14319702	19.83703000	15.04562000
5.14819702	19.83703000	12.72622000
5.15319702	19.83703000	11.61229000
5.15819702	19.83703000	11.84118000
5.16319702	19.83703000	11.90222000
5.16819702	19.83703000	11.90222000
5.17319702	19.83703000	11.90222000
5.17819702	19.83703000	11.90222000
5.18319702	19.83703000	11.90222000
5.18819702	19.83703000	11.90222000
5.19319702	19.83703000	11.90222000
5.19819702	19.83703000	11.90222000
5.20319702	19.83703000	11.90222000
5.20819702	19.83703000	11.90222000
5.21319702	19.83703000	11.90222000
5.21819702	19.83703000	11.90222000
5.22319702	19.83703000	11.90222000
5.22819702	19.83703000	11.90222000
5.23319702	19.83703000	11.84118000
5.23819702	19.83703000	11.61229000
5.24319702	19.83703000	12.78725000
5.24819702	19.83703000	15.33555000
5.25319702	19.83703000	15.33555000
5.25819702	19.83703000	12.78725000
5.26319702	19.83703000	11.61229000
5.26819702	19.83703000	11.84118000
5.27319702	19.83703000	11.90222000
5.27819702	19.83703000	11.90222000
5.28319702	19.89807000	11.90222000
5.28819702	20.12696000	11.90222000
5.29319702	18.95199000	11.90222000
5.29819702	16.40370000	11.90222000
5.30319702	16.46474000	11.90222000
5.30819702	19.24192000	11.90222000
5.31319702	19.24192000	11.90222000
5.31819702	16.46474000	11.90222000
5.32319702	16.40370000	11.90222000
5.32819702	18.95199000	11.90222000
5.33319702	20.12696000	11.90222000
5.33819702	19.89807000	11.90222000
5.34319702	19.89807000	11.90222000
5.34819702	20.12696000	11.90222000
5.35319702	19.01303000	11.90222000
5.35819702	16.69362000	11.90222000
5.36319702	15.57970000	11.90222000
5.36819702	15.80859000	11.90222000
5.37319702	15.86962000	11.90222000
5.37819702	15.86962000	11.90222000
5.38319702	15.86962000	11.90222000
5.38819702	15.86962000	11.90222000
5.39319702	15.86962000	11.90222000
5.39819702	15.86962000	11.90222000
5.40319702	15.86962000	11.96325000
5.40819702	15.86962000	12.19214000
5.41319702	15.86962000	11.07822000
5.41819702	15.86962000	8.75881200
5.42319702	15.86962000	7.58384900
5.42819702	15.86962000	7.58384900
5.43319702	15.86962000	8.81984900
5.43819702	15.86962000	11.36814000
5.44319702	15.86962000	11.36814000
5.44819702	15.86962000	8.81984900
5.45319702	15.86962000	7.64488600
5.45819702	15.86962000	7.87377500
5.46319702	15.86962000	7.87377500
5.46819702	15.86962000	7.64488600
5.47319702	15.86962000	8.75881200
5.47819702	15.86962000	11.07822000
5.48319702	15.86962000	12.19214000
5.48819702	15.86962000	11.96325000
5.49319702	15.86962000	11.90222000
5.49819702	15.86962000	11.90222000
5.50319702	15.86962000	11.90222000
5.50819702	15.86962000	11.90222000
5.51319702	15.86962000	11.90222000
5.51819702	15.86962000	11.90222000
5.52319702	15.86962000	11.90222000
5.52819702	15.86962000	11.90222000
5.53319702	15.86962000	11.90222000
5.53819702	15.86962000	11.90222000
5.54319702	15.86962000	11.90222000
5.54819702	15.86962000	11.90222000
5.55319702	15.86962000	11.90222000
5.55819702	15.86962000	11.90222000
5.56319702	15.86962000	11.90222000
5.56819702	15.86962000	11.90222000
5.57319702	15.86962000	11.90222000
5.57819702	15.86962000	11.90222000
5.58319702	15.86962000	11.90222000
5.58819702	15.86962000	11.90222000
5.59319702	15.86962000	11.90222000
5.59819702	15.86962000	11.90222000
5.60319702	15.86962000	11.90222000
5.60819702	15.86962000	11.90222000
5.61319702	15.86962000	11.90222000
5.61819702	15.86962000	11.90222000
5.62319702	15.86962000	11.90222000
5.62819702	15.86962000	11.90222000
5.63319702	15.86962000	11.90222000
5.63819702	15.86962000	11.90222000
5.64319702	15.86962000	11.90222000
5.64819702	15.86962000	11.90222000
5.65319702	15.86962000	11.90222000
5.65819702	15.86962000	11.90222000
5.66319702	15.86962000	11.90222000
5.66819702	15.86962000	11.90222000
5.67319702	15.86962000	11.90222000
5.67819702	15.86962000	11.90222000
5.68319702	15.86962000	11.90222000
5.68819702	15.86962000	11.90222000
5.69319702	15.86962000	11.90222000
5.69819702	15.86962000	11.90222000
5.70319702	15.86962000	11.90222000
5.70819702	15.86962000	11.90222000
5.71319702	15.86962000	11.90222000
5.71819702	15.86962000	11.90222000
5.72319701	15.86962000	11.90222000
5.72819701	15.86962000	11.90222000
5.73319701	15.86962000	11.90222000
5.73819701	15.86962000	11.90222000
5.74319701	15.86962000	11.90222000
5.74819701	15.86962000	11.90222000
5.75319701	15.86962000	11.90222000
5.75819701	15.86962000	11.90222000
5.76319701	15.86962000	11.96325000
5.76819701	15.86962000	12.19214000
5.77319701	15.86962000	11.01718000
5.77819701	15.86962000	8.46888600
5.78319701	15.86962000	8.46888600
5.78819701	15.86962000	11.01718000
5.79319701	15.86962000	12.19214000
5.79819701	15.86962000	11.96325000
5.80319701	15.86962000	11.90222000
5.80819701	15.86962000	11.90222000
5.81319701	15.86962000	11.90222000
5.81819701	15.86962000	11.90222000
5.82319701	15.86962000	11.90222000
5.82819701	15.86962000	11.90222000
5.83319701	15.86962000	11.90222000
5.83819701	15.86962000	11.90222000
5.84319701	15.86962000	11.90222000
5.84819701	15.86962000	11.90222000
5.85319701	15.86962000	11.90222000
5.85819701	15.86962000	11.90222000
5.86319701	15.86962000	11.90222000
5.86819701	15.86962000	11.90222000
5.87319701	15.86962000	11.90222000
5.87819701	15.86962000	11.90222000
5.88319701	15.86962000	11.90222000
5.88819701	15.86962000	11.90222000
5.89319701	15.86962000	11.90222000
5.89819701	15.86962000	11.90222000
5.90319701	15.86962000	11.90222000
5.90819701	15.86962000	11.90222000
5.91319701	15.86962000	11.90222000
5.91819701	15.86962000	11.90222000
5.92319701	15.86962000	11.90222000
5.92819701	15.86962000	11.90222000
5.93319701	15.86962000	11.90222000
5.93819701	15.86962000	11.90222000
5.94319701	15.86962000	11.90222000
5.94819701	15.86962000	11.90222000
5.95319701	15.86962000	11.90222000
5.95819701	15.86962000	11.90222000
5.96319701	15.86962000	11.90222000
5.96819701	15.86962000	11.90222000
5.97319701	15.86962000	11.90222000
5.97819701	15.86962000	11.90222000
5.98319701	15.86962000	11.90222000
5.98819701	15.86962000	11.90222000
5.99319701	15.86962000	11.96325000
5.99819701	15.86962000	12.19214000
6.00319701	15.86962000	11.07822000
6.00819701	15.86962000	8.75881200
6.01319701	15.86962000	7.64488600
6.01819701	15.86962000	7.87377500
6.02319701	15.86962000	7.87377500
6.02819701	15.86962000	7.64488600
6.03319701	15.86962000	8.75881200
6.03819701	15.86962000	11.07822000
6.04319701	15.93066000	12.19214000
6.04819701	16.15955000	11.96325000
6.05319701	14.98459000	11.96325000
6.05819701	12.43629000	12.19214000
6.06319701	12.43629000	11.07822000
6.06819701	14.98459000	8.75881200
6.07319701	16.22059000	7.58384900
6.07819701	16.22059000	7.58384900
6.08319701	14.98459000	8.81984900
6.08819701	12.43629000	11.36814000
6.09319701	12.49733000	11.36814000
6.09819701	15.27451000	8.81984900
6.10319701	15.27451000	7.64488600
6.10819701	12.49733000	7.87377500
6.11319701	12.49733000	7.93481200
6.11819701	15.27451000	7.93481200
6.12319701	15.33555000	7.93481200
6.12819701	12.78725000	7.93481200
6.13319701	11.55125000	7.93481200
6.13819701	11.55125000	7.93481200
6.14319701	12.78725000	7.93481200
6.14819701	15.33555000	7.93481200
6.15319701	15.27451000	7.93481200
6.15819701	12.49733000	7.93481200
6.16319701	12.49733000	7.93481200
6.16819701	15.27451000	7.93481200
6.17319701	15.27451000	7.93481200
6.17819701	12.49733000	7.93481200
6.18319701	12.49733000	7.93481200
6.18819701	15.27451000	7.93481200
6.19319701	15.33555000	7.93481200
6.19819701	12.78725000	7.93481200
6.20319701	11.61229000	7.93481200
6.20819701	11.84118000	7.93481200
6.21319701	11.90222000	7.93481200
6.21819701	11.90222000	7.93481200
6.22319701	11.84118000	7.93481200
6.22819701	11.61229000	7.93481200
6.23319701	12.78725000	7.93481200
6.23819701	15.33555000	7.93481200
6.24319701	15.33555000	7.93481200
6.24819701	12.78725000	7.93481200
6.25319701	11.55125000	7.93481200
6.25819701	11.55125000	7.93481200
6.26319701	12.72622000	7.93481200
6.26819701	15.04562000	7.93481200
6.27319701	16.22059000	7.93481200
6.27819701	16.22059000	7.93481200
6.28319701	15.04562000	7.93481200
6.28819701	12.72622000	7.93481200
6.29319701	11.61229000	7.93481200
6.29819701	11.84118000	7.93481200
6.30319701	11.90222000	7.93481200
6.30819701	11.90222000	7.93481200
6.31319701	11.90222000	7.93481200
6.31819701	11.90222000	7.93481200
6.32319701	11.90222000	7.93481200
6.32819701	11.90222000	7.93481200
6.33319701	11.90222000	7.93481200
6.33819701	11.90222000	7.93481200
6.34319701	11.90222000	7.93481200
6.34819701	11.90222000	7.93481200
6.35319701	11.90222000	7.93481200
6.35819701	11.90222000	7.93481200
6.36319701	11.90222000	7.93481200
6.36819701	11.90222000	7.93481200
6.37319701	11.90222000	7.93481200
6.37819701	11.90222000	7.93481200
6.38319701	11.90222000	7.93481200
6.38819701	11.90222000	7.93481200
6.39319701	11.90222000	7.93481200
6.39819701	11.90222000	7.93481200
6.40319701	11.84118000	7.93481200
6.40819701	11.61229000	7.93481200
6.41319701	12.72622000	7.93481200
6.41819701	15.04562000	7.93481200
6.42319701	16.22059000	7.93481200
6.42819701	16.22059000	7.93481200
6.43319701	15.04562000	7.93481200
6.43819701	12.72622000	7.93481200
6.44319701	11.61229000	7.93481200
6.44819701	11.84118000	7.93481200
6.45319701	11.90222000	7.87377500
6.45819701	11.90222000	7.64488600
6.46319701	11.90222000	8.75881200
6.46819701	11.90222000	11.07822000
6.47319701	11.90222000	12.25318000
6.47819701	11.90222000	12.25318000
6.48319701	11.90222000	11.01718000
6.48819701	11.90222000	8.46888600
6.49319701	11.90222000	8.46888600
6.49819701	11.90222000	11.01718000
6.50319701	11.90222000	12.19214000
6.50819701	11.90222000	11.96325000
6.51319701	11.90222000	11.90222000
6.51819701	11.90222000	11.90222000
6.52319701	11.90222000	11.90222000
6.52819701	11.90222000	11.90222000
6.53319701	11.90222000	11.90222000
6.53819701	11.90222000	11.90222000
6.54319701	11.90222000	11.90222000
6.54819701	11.90222000	11.90222000
6.55319701	11.90222000	11.90222000
6.55819701	11.90222000	11.90222000
6.56319701	11.90222000	11.90222000
6.56819701	11.90222000	11.90222000
6.57319701	11.90222000	11.96325000
6.57819701	11.90222000	12.19214000
6.58319701	11.90222000	11.01718000
6.58819701	11.90222000	8.46888600
6.59319701	11.90222000	8.52992300
6.59819701	11.90222000	11.30711000
6.60319701	11.90222000	11.36814000
6.60819701	11.90222000	8.81984900
6.61319701	11.90222000	7.64488600
6.61819701	11.90222000	7.87377500
6.62319701	11.90222000	7.93481200
6.62819701	11.90222000	7.93481200
6.63319701	11.90222000	7.93481200
6.63819701	11.90222000	7.93481200
6.64319701	11.90222000	7.93481200
6.64819701	11.90222000	7.93481200
6.65319701	11.90222000	7.93481200
6.65819701	11.90222000	7.93481200
6.66319701	11.90222000	7.93481200
6.66819701	11.90222000	7.93481200
6.67319701	11.90222000	7.93481200
6.67819701	11.90222000	7.93481200
6.68319701	11.90222000	7.93481200
6.68819701	11.90222000	7.93481200
6.69319701	11.90222000	7.93481200
6.69819701	11.90222000	7.93481200
6.70319701	11.90222000	7.87377500
6.70819701	11.90222000	7.64488600
6.71319701	11.90222000	8.75881200
6.71819701	11.90222000	11.07822000
6.72319701	11.90222000	12.25318000
6.72819701	11.90222000	12.25318000
6.73319701	11.90222000	11.07822000
6.73819701	11.90222000	8.75881200
6.74319701	11.90222000	7.64488600
6.74819701	11.90222000	7.87377500
6.75319701	11.90222000	7.93481200
6.75819701	11.90222000	7.93481200
6.76319701	11.90222000	7.93481200
6.76819701	11.90222000	7.93481200
6.77319701	11.90222000	7.93481200
6.77819701	11.90222000	7.93481200
6.78319701	11.90222000	7.93481200
6.78819701	11.90222000	7.93481200
6.79319701	11.90222000	7.93481200
6.79819701	11.90222000	7.93481200
6.80319701	11.90222000	7.93481200
6.80819701	11.90222000	7.93481200
6.81319701	11.90222000	7.93481200
6.81819701	11.90222000	7.93481200
6.82319701	11.90222000	7.87377500
6.82819701	11.90222000	7.64488600
6.83319701	11.90222000	8.75881200
6.83819701	11.90222000	11.07822000
6.84319701	11.90222000	12.19214000
6.84819701	11.90222000	11.96325000
6.85319701	11.90222000	11.90222000
6.85819701	11.90222000	11.90222000
6.86319701	11.90222000	11.90222000
6.86819701	11.90222000	11.90222000
6.87319701	11.90222000	11.90222000
6.87819701	11.90222000	11.90222000
6.88319701	11.90222000	11.90222000
6.88819701	11.90222000	11.90222000
6.89319701	11.90222000	11.90222000
6.89819701	11.90222000	11.90222000
6.90319701	11.90222000	11.90222000
6.90819701	11.90222000	11.90222000
6.91319701	11.90222000	11.90222000
6.91819701	11.90222000	11.90222000
6.92319701	11.90222000	11.96325000
6.92819701	11.90222000	12.19214000
6.93319701	11.90222000	11.07822000
6.93819701	11.90222000	8.75881200
6.94319701	11.90222000	7.64488600
6.94819701	11.90222000	7.87377500
6.95319701	11.90222000	7.93481200
6.95819701	11.90222000	7.93481200
6.96319701	11.90222000	7.93481200
6.96819701	11.90222000	7.93481200
6.97319701	11.90222000	7.93481200
6.97819701	11.90222000	7.93481200
6.98319701	11.90222000	7.93481200
6.98819701	11.90222000	7.93481200
6.99319701	11.90222000	7.93481200
6.99819701	11.90222000	7.93481200
7.00319701	11.96325000	7.93481200
7.00819701	12.19214000	7.93481200
7.01319701	11.01718000	7.93481200
7.01819701	8.46888600	7.93481200
7.02319701	8.46888600	7.93481200
7.02819701	11.01718000	7.93481200
7.03319701	12.19214000	7.93481200
7.03819701	11.96325000	7.93481200
7.04319701	11.90222000	7.93481200
7.04819701	11.90222000	7.93481200
7.05319701	11.90222000	7.93481200
7.05819701	11.90222000	7.93481200
7.06319701	11.90222000	7.93481200
7.06819701	11.90222000	7.93481200
7.07319701	11.90222000	7.93481200
7.07819701	11.90222000	7.93481200
7.08319701	11.90222000	7.93481200
7.08819701	11.90222000	7.93481200
7.09319701	11.90222000	7.93481200
7.09819701	11.90222000	7.93481200
7.10319701	11.90222000	7.93481200
7.10819701	11.90222000	7.93481200
7.11319701	11.90222000	7.93481200
7.11819701	11.90222000	7.93481200
7.12319701	11.90222000	7.93481200
7.12819701	11.90222000	7.93481200
7.13319701	11.90222000	7.93481200
7.13819701	11.90222000	7.93481200
7.14319701	11.90222000	7.93481200
7.14819701	11.90222000	7.93481200
7.15319701	11.90222000	7.93481200
7.15819701	11.90222000	7.93481200
7.16319701	11.90222000	7.93481200
7.16819701	11.90222000	7.93481200
7.17319701	11.90222000	7.93481200
7.17819701	11.90222000	7.93481200
7.18319701	11.90222000	7.87377500
7.18819701	11.90222000	7.64488600
7.19319701	11.90222000	8.81984900
7.19819701	11.90222000	11.36814000
7.20319701	11.90222000	11.42918000
7.20819701	11.90222000	9.10977400
7.21319701	11.96325000	6.75985000
7.21819701	12.19214000	4.44044300
7.22319701	11.01718000	4.50148000
7.22819701	8.46888600	7.04977500
7.23319701	8.46888600	8.22473800
7.23819701	11.01718000	7.99584900
7.24319701	12.19214000	7.93481200
7.24819701	11.96325000	7.93481200
7.25319701	11.90222000	7.93481200
7.25819701	11.90222000	7.93481200
7.26319701	11.90222000	7.93481200
7.26819701	11.90222000	7.93481200
7.27319701	11.90222000	7.93481200
7.27819701	11.90222000	7.93481200
7.28319701	11.90222000	7.93481200
7.28819701	11.90222000	7.93481200
7.29319701	11.90222000	7.93481200
7.29819701	11.90222000	7.93481200
7.30319701	11.90222000	7.93481200
7.30819701	11.90222000	7.93481200
7.31319701	11.90222000	7.87377500
7.31819701	11.90222000	7.64488600
7.32319701	11.90222000	8.75881200
7.32819701	11.90222000	11.07822000
7.33319701	11.90222000	12.25318000
7.33819701	11.90222000	12.25318000
7.34319701	11.90222000	11.01718000
7.34819701	11.90222000	8.46888600
7.35319701	11.90222000	8.52992300
7.35819701	11.90222000	11.30711000
7.36319701	11.90222000	11.30711000
7.36819700	11.90222000	8.52992300
7.37319700	11.96325000	8.52992300
7.37819700	12.19214000	11.30711000
7.38319700	11.01718000	11.30711000
7.38819700	8.46888600	8.52992300
7.39319700	8.46888600	8.52992300
7.39819700	11.01718000	11.30711000
7.40319700	12.19214000	11.36814000
7.40819700	11.96325000	8.81984900
7.41319700	11.90222000	7.58384900
7.41819700	11.90222000	7.58384900
7.42319700	11.90222000	8.81984900
7.42819700	11.90222000	11.36814000
7.43319700	11.90222000	11.36814000
7.43819700	11.90222000	8.81984900
7.44319700	11.90222000	7.58384900
7.44819700	11.90222000	7.58384900
7.45319700	11.90222000	8.81984900
7.45819700	11.90222000	11.36814000
7.46319700	11.90222000	11.36814000
7.46819700	11.90222000	8.81984900
7.47319700	11.96325000	7.64488600
7.47819700	12.19214000	7.87377500
7.48319700	11.01718000	7.93481200
7.48819700	8.46888600	7.93481200
7.49319700	8.46888600	7.93481200
7.49819700	11.01718000	7.93481200
7.50319700	12.19214000	7.93481200
7.50819700	11.96325000	7.93481200
7.51319700	11.96325000	7.93481200
7.51819700	12.19214000	7.93481200
7.52319700	11.07822000	7.93481200
7.52819700	8.75881200	7.93481200
7.53319700	7.58384900	7.93481200
7.53819700	7.58384900	7.93481200
7.54319700	8.75881200	7.93481200
7.54819700	11.07822000	7.93481200
7.55319700	12.19214000	7.93481200
7.55819700	11.96325000	7.93481200
7.56319700	11.90222000	7.93481200
7.56819700	11.90222000	7.93481200
7.57319700	11.90222000	7.93481200
7.57819700	11.90222000	7.93481200
7.58319700	11.90222000	7.93481200
7.58819700	11.90222000	7.93481200
7.59319700	11.90222000	7.93481200
7.59819700	11.90222000	7.93481200
7.60319700	11.96325000	7.93481200
7.60819700	12.19214000	7.93481200
7.61319700	11.07822000	7.93481200
7.61819700	8.75881200	7.93481200
7.62319700	7.58384900	7.93481200
7.62819700	7.58384900	7.93481200
7.63319700	8.81984900	7.93481200
7.63819700	11.36814000	7.93481200
7.64319700	11.30711000	7.93481200
7.64819700	8.52992300	7.93481200
7.65319700	8.46888600	7.93481200
7.65819700	11.01718000	7.93481200
7.66319700	12.25318000	7.93481200
7.66819700	12.25318000	7.93481200
7.67319700	11.07822000	7.93481200
7.67819700	8.75881200	7.93481200
7.68319700	7.64488600	7.93481200
7.68819700	7.87377500	7.93481200
7.69319700	7.87377500	7.93481200
7.69819700	7.64488600	7.93481200
7.70319700	8.81984900	7.93481200
7.70819700	11.36814000	7.93481200
7.71319700	11.30711000	7.93481200
7.71819700	8.52992300	7.93481200
7.72319700	8.46888600	7.93481200
7.72819700	11.01718000	7.93481200
7.73319700	12.25318000	7.93481200
7.73819700	12.25318000	7.93481200
7.74319700	11.01718000	7.93481200
7.74819700	8.46888600	7.93481200
7.75319700	8.46888600	7.93481200
7.75819700	11.01718000	7.93481200
7.76319700	12.19214000	7.87377500
7.76819700	11.96325000	7.64488600
7.77319700	11.90222000	8.81984900
7.77819700	11.90222000	11.36814000
7.78319700	11.90222000	11.36814000
7.78819700	11.90222000	8.81984900
7.79319700	11.96325000	7.64488600
7.79819700	12.19214000	7.87377500
7.80319700	11.01718000	7.93481200
7.80819700	8.46888600	7.93481200
7.81319700	8.46888600	7.93481200
7.81819700	11.01718000	7.93481200
7.82319700	12.19214000	7.93481200
7.82819700	11.96325000	7.93481200
7.83319700	11.96325000	7.93481200
7.83819700	12.19214000	7.93481200
7.84319700	11.01718000	7.93481200
7.84819700	8.46888600	7.93481200
7.85319700	8.52992300	7.93481200
7.85819700	11.30711000	7.93481200
7.86319700	11.36814000	7.93481200
7.86819700	8.81984900	7.93481200
7.87319700	7.58384900	7.93481200
7.87819700	7.58384900	7.93481200
7.88319700	8.75881200	7.87377500
7.88819700	11.07822000	7.64488600
7.89319700	12.25318000	8.81984900
7.89819700	12.25318000	11.36814000
7.90319700	11.07822000	11.36814000
7.90819700	8.75881200	8.81984900
7.91319700	7.64488600	7.64488600
7.91819700	7.87377500	7.87377500
7.92319700	7.87377500	7.87377500
7.92819700	7.64488600	7.64488600
7.93319700	8.81984900	8.81984900
7.93819700	11.36814000	11.36814000
7.94319700	11.30711000	11.30711000
7.94819700	8.52992300	8.52992300
7.95319700	8.46888600	8.52992300
7.95819700	11.01718000	11.30711000
7.96319700	12.19214000	11.30711000
7.96819700	11.96325000	8.52992300
7.97319700	11.96325000	8.52992300
7.97819700	12.19214000	11.30711000
7.98319700	11.07822000	11.36814000
7.98819700	8.75881200	8.81984900
7.99319700	7.58384900	7.64488600
7.99819700	7.58384900	7.87377500
8.00319700	8.81984900	7.93481200
8.00819700	11.36814000	7.93481200
8.01319700	11.36814000	7.93481200
8.01819700	8.81984900	7.93481200
8.02319700	7.64488600	7.93481200
8.02819700	7.87377500	7.93481200
8.03319700	7.87377500	7.93481200
8.03819700	7.64488600	7.93481200
8.04319700	8.81984900	7.93481200
8.04819700	11.36814000	7.93481200
8.05319700	11.30711000	7.93481200
8.05819700	8.52992300	7.93481200
8.06319700	8.46888600	7.93481200
8.06819700	11.01718000	7.93481200
8.07319700	12.19214000	7.93481200
8.07819700	11.96325000	7.93481200
8.08319700	11.96325000	7.93481200
8.08819700	12.19214000	7.93481200
8.09319700	11.07822000	7.93481200
8.09819700	8.75881200	7.93481200
8.10319700	7.64488600	7.93481200
8.10819700	7.87377500	7.93481200
8.11319700	7.87377500	7.93481200
8.11819700	7.64488600	7.93481200
8.12319700	8.81984900	7.93481200
8.12819700	11.36814000	7.93481200
8.13319700	11.30711000	7.93481200
8.13819700	8.52992300	7.93481200
8.14319700	8.52992300	7.93481200
8.14819700	11.30711000	7.93481200
8.15319700	11.36814000	7.93481200
8.15819700	8.81984900	7.93481200
8.16319700	7.58384900	7.93481200
8.16819700	7.58384900	7.93481200
8.17319700	8.81984900	7.93481200
8.17819700	11.36814000	7.93481200
8.18319700	11.36814000	7.93481200
8.18819700	8.81984900	7.93481200
8.19319700	7.64488600	7.93481200
8.19819700	7.87377500	7.93481200
8.20319700	7.87377500	7.93481200
8.20819700	7.64488600	7.93481200
8.21319700	8.81984900	7.93481200
8.21819700	11.36814000	7.93481200
8.22319700	11.36814000	7.93481200
8.22819700	8.81984900	7.93481200
8.23319700	7.64488600	7.93481200
8.23819700	7.87377500	7.93481200
8.24319700	7.87377500	7.93481200
8.24819700	7.64488600	7.93481200
8.25319700	8.75881200	7.93481200
8.25819700	11.07822000	7.93481200
8.26319700	12.19214000	7.93481200
8.26819700	11.96325000	7.93481200
8.27319700	11.96325000	7.93481200
8.27819700	12.19214000	7.93481200
8.28319700	11.01718000	7.93481200
8.28819700	8.46888600	7.93481200
8.29319700	8.52992300	7.87377500
8.29819700	11.30711000	7.64488600
8.30319700	11.36814000	8.75881200
8.30819700	8.81984900	11.07822000
8.31319700	7.64488600	12.19214000
8.31819700	7.87377500	11.96325000
8.32319700	7.87377500	11.90222000
8.32819700	7.64488600	11.90222000
8.33319700	8.81984900	11.90222000
8.33819700	11.36814000	11.90222000
8.34319700	11.36814000	11.90222000
8.34819700	8.81984900	11.90222000
8.35319700	7.64488600	11.90222000
8.35819700	7.87377500	11.90222000
8.36319700	7.93481200	11.90222000
8.36819700	7.93481200	11.90222000
8.37319700	7.93481200	11.90222000
8.37819700	7.93481200	11.90222000
8.38319700	7.93481200	11.96325000
8.38819700	7.93481200	12.19214000
8.39319700	7.93481200	11.01718000
8.39819700	7.93481200	8.46888600
8.40319700	7.93481200	8.52992300
8.40819700	7.93481200	11.30711000
8.41319700	7.93481200	11.36814000
8.41819700	7.93481200	8.81984900
8.42319700	7.93481200	7.64488600
8.42819700	7.93481200	7.87377500
8.43319700	7.93481200	7.93481200
8.43819700	7.93481200	7.93481200
8.44319700	7.93481200	7.93481200
8.44819700	7.93481200	7.93481200
8.45319700	7.93481200	7.93481200
8.45819700	7.93481200	7.93481200
8.46319700	7.93481200	7.93481200
8.46819700	7.93481200	7.93481200
8.47319700	7.93481200	7.93481200
8.47819700	7.93481200	7.93481200
8.48319700	7.93481200	7.93481200
8.48819700	7.93481200	7.93481200
8.49319700	7.93481200	7.93481200
8.49819700	7.93481200	7.93481200
8.50319700	7.93481200	7.87377500
8.50819700	7.93481200	7.64488600
8.51319700	7.93481200	8.81984900
8.51819700	7.93481200	11.36814000
8.52319700	7.93481200	11.36814000
8.52819700	7.93481200	8.81984900
8.53319700	7.93481200	7.64488600
8.53819700	7.93481200	7.87377500
8.54319700	7.93481200	7.93481200
8.54819700	7.93481200	7.93481200
8.55319700	7.93481200	7.93481200
8.55819700	7.93481200	7.93481200
8.56319700	7.87377500	7.93481200
8.56819700	7.64488600	7.93481200
8.57319700	8.81984900	7.93481200
8.57819700	11.36814000	7.93481200
8.58319700	11.36814000	7.93481200
8.58819700	8.81984900	7.93481200
8.59319700	7.64488600	7.93481200
8.59819700	7.87377500	7.93481200
8.60319700	7.93481200	7.93481200
8.60819700	7.93481200	7.93481200
8.61319700	7.93481200	7.93481200
8.61819700	7.93481200	7.93481200
8.62319700	7.93481200	7.93481200
8.62819700	7.93481200	7.93481200
8.63319700	7.93481200	7.93481200
8.63819700	7.93481200	7.93481200
8.64319700	7.93481200	7.93481200
8.64819700	7.93481200	7.93481200
8.65319700	7.93481200	7.93481200
8.65819700	7.93481200	7.93481200
8.66319700	7.87377500	7.93481200
8.66819700	7.64488600	7.93481200
8.67319700	8.81984900	7.93481200
8.67819700	11.36814000	7.93481200
8.68319700	11.36814000	7.93481200
8.68819700	8.81984900	7.93481200
8.69319700	7.64488600	7.93481200
8.69819700	7.87377500	7.93481200
8.70319700	7.93481200	7.93481200
8.70819700	7.93481200	7.93481200
8.71319700	7.93481200	7.93481200
8.71819700	7.93481200	7.93481200
8.72319700	7.93481200	7.93481200
8.72819700	7.93481200	7.93481200
8.73319700	7.93481200	7.93481200
8.73819700	7.93481200	7.93481200
8.74319700	7.93481200	7.93481200
8.74819700	7.93481200	7.93481200
8.75319700	7.93481200	7.93481200
8.75819700	7.93481200	7.93481200
8.76319700	7.93481200	7.93481200
8.76819700	7.93481200	7.93481200
8.77319700	7.93481200	7.93481200
8.77819700	7.93481200	7.93481200
8.78319700	7.93481200	7.93481200
8.78819700	7.93481200	7.93481200
8.79319700	7.93481200	7.93481200
8.79819700	7.93481200	7.93481200
8.80319700	7.93481200	7.93481200
8.80819700	7.93481200	7.93481200
8.81319700	7.93481200	7.93481200
8.81819700	7.93481200	7.93481200
8.82319700	7.93481200	7.93481200
8.82819700	7.93481200	7.93481200
8.83319700	7.93481200	7.93481200
8.83819700	7.93481200	7.93481200
8.84319700	7.93481200	7.93481200
8.84819700	7.93481200	7.93481200
8.85319700	7.93481200	7.93481200
8.85819700	7.93481200	7.93481200
8.86319700	7.87377500	7.93481200
8.86819700	7.64488600	7.93481200
8.87319700	8.81984900	7.93481200
8.87819700	11.36814000	7.93481200
8.88319700	11.36814000	7.93481200
8.88819700	8.81984900	7.93481200
8.89319700	7.64488600	7.93481200
8.89819700	7.87377500	7.93481200
8.90319700	7.93481200	7.93481200
8.90819700	7.93481200	7.93481200
8.91319700	7.93481200	7.93481200
8.91819700	7.93481200	7.93481200
8.92319700	7.93481200	7.93481200
8.92819700	7.93481200	7.93481200
8.93319700	7.93481200	7.93481200
8.93819700	7.93481200	7.93481200
8.94319700	7.93481200	7.93481200
8.94819700	7.93481200	7.93481200
8.95319700	7.93481200	7.93481200
8.95819700	7.93481200	7.93481200
8.96319700	7.93481200	7.87377500
8.96819700	7.93481200	7.64488600
8.97319700	7.93481200	8.75881200
8.97819700	7.93481200	11.07822000
8.98319700	7.93481200	12.19214000
8.98819700	7.93481200	11.96325000
8.99319700	7.93481200	11.90222000
8.99819700	7.93481200	11.90222000
9.00319700	7.93481200	11.96325000
9.00819700	7.93481200	12.19214000
9.01319699	7.93481200	11.07822000
9.01819699	7.93481200	8.75881200
9.02319699	7.93481200	7.64488600
9.02819699	7.93481200	7.87377500
