Time	Channel A	Channel B
(us)	(mV)	(mV)

-1.00522804	15.33555000	15.86962000
-1.00022804	12.78725000	15.86962000
-0.99522804	11.61229000	15.80859000
-0.99022804	11.84118000	15.57970000
-0.98522804	11.90222000	16.75466000
-0.98022804	11.90222000	19.30296000
-0.97522804	11.84118000	19.24192000
-0.97022804	11.61229000	16.46474000
-0.96522804	12.78725000	16.46474000
-0.96022804	15.33555000	19.24192000
-0.95522804	15.33555000	19.30296000
-0.95022804	12.78725000	16.75466000
-0.94522804	11.61229000	15.57970000
-0.94022804	11.84118000	15.80859000
-0.93522804	11.84118000	15.86962000
-0.93022804	11.61229000	15.86962000
-0.92522804	12.78725000	15.80859000
-0.92022804	15.33555000	15.57970000
-0.91522804	15.27451000	16.75466000
-0.91022804	12.49733000	19.30296000
-0.90522804	12.43629000	19.30296000
-0.90022804	14.98459000	16.75466000
-0.89522804	16.22059000	15.51866000
-0.89022804	16.22059000	15.51866000
-0.88522804	15.04562000	16.75466000
-0.88022804	12.72622000	19.30296000
-0.87522804	11.61229000	19.30296000
-0.87022804	11.84118000	16.75466000
-0.86522804	11.90222000	15.57970000
-0.86022804	11.90222000	15.80859000
-0.85522804	11.90222000	15.80859000
-0.85022804	11.90222000	15.57970000
-0.84522804	11.90222000	16.69362000
-0.84022804	11.90222000	19.01303000
-0.83522804	11.84118000	20.12696000
-0.83022804	11.61229000	19.89807000
-0.82522804	12.78725000	19.83703000
-0.82022804	15.33555000	19.83703000
-0.81522804	15.27451000	19.83703000
-0.81022804	12.49733000	19.83703000
-0.80522804	12.49733000	19.83703000
-0.80022804	15.27451000	19.83703000
-0.79522804	15.33555000	19.83703000
-0.79022804	12.78725000	19.83703000
-0.78522804	11.55125000	19.83703000
-0.78022804	11.55125000	19.83703000
-0.77522804	12.72622000	19.89807000
-0.77022804	15.04562000	20.12696000
-0.76522804	16.22059000	19.01303000
-0.76022804	16.22059000	16.69362000
-0.75522804	15.04562000	15.57970000
-0.75022804	12.72622000	15.80859000
-0.74522804	11.61229000	15.86962000
-0.74022804	11.84118000	15.86962000
-0.73522804	11.90222000	15.86962000
-0.73022804	11.90222000	15.86962000
-0.72522804	11.84118000	15.86962000
-0.72022804	11.61229000	15.86962000
-0.71522804	12.78725000	15.86962000
-0.71022804	15.33555000	15.86962000
-0.70522804	15.27451000	15.86962000
-0.70022804	12.49733000	15.86962000
-0.69522804	12.49733000	15.86962000
-0.69022804	15.27451000	15.86962000
-0.68522804	15.33555000	15.86962000
-0.68022804	12.78725000	15.86962000
-0.67522804	11.61229000	15.86962000
-0.67022804	11.84118000	15.86962000
-0.66522804	11.84118000	15.86962000
-0.66022804	11.61229000	15.86962000
-0.65522804	12.78725000	15.86962000
-0.65022804	15.33555000	15.86962000
-0.64522804	15.33555000	15.86962000
-0.64022804	12.78725000	15.86962000
-0.63522804	11.61229000	15.86962000
-0.63022804	11.84118000	15.86962000
-0.62522804	11.90222000	15.86962000
-0.62022804	11.90222000	15.86962000
-0.61522804	11.90222000	15.86962000
-0.61022804	11.90222000	15.86962000
-0.60522804	11.90222000	15.80859000
-0.60022804	11.90222000	15.57970000
-0.59522804	11.90222000	16.69362000
-0.59022804	11.90222000	19.01303000
-0.58522804	11.84118000	20.12696000
-0.58022804	11.61229000	19.89807000
-0.57522804	12.72622000	19.83703000
-0.57022804	15.04562000	19.83703000
-0.56522804	16.15955000	19.83703000
-0.56022804	15.93066000	19.83703000
-0.55522804	15.93066000	19.83703000
-0.55022804	16.15955000	19.83703000
-0.54522804	15.04562000	19.83703000
-0.54022804	12.72622000	19.83703000
-0.53522804	11.55125000	19.83703000
-0.53022804	11.55125000	19.83703000
-0.52522804	12.78725000	19.89807000
-0.52022804	15.33555000	20.12696000
-0.51522804	15.33555000	19.01303000
-0.51022804	12.78725000	16.69362000
-0.50522804	11.55125000	15.57970000
-0.50022804	11.55125000	15.80859000
-0.49522804	12.78725000	15.86962000
-0.49022804	15.33555000	15.86962000
-0.48522804	15.33555000	15.86962000
-0.48022804	12.78725000	15.86962000
-0.47522804	11.61229000	15.86962000
-0.47022804	11.84118000	15.86962000
-0.46522804	11.90222000	15.86962000
-0.46022804	11.90222000	15.86962000
-0.45522804	11.90222000	15.86962000
-0.45022804	11.90222000	15.86962000
-0.44522804	11.90222000	15.86962000
-0.44022804	11.90222000	15.86962000
-0.43522804	11.90222000	15.86962000
-0.43022804	11.90222000	15.86962000
-0.42522804	11.90222000	15.80859000
-0.42022804	11.90222000	15.57970000
-0.41522804	11.90222000	16.69362000
-0.41022804	11.90222000	19.01303000
-0.40522804	11.90222000	20.12696000
-0.40022804	11.90222000	19.89807000
-0.39522804	11.90222000	19.83703000
-0.39022804	11.90222000	19.83703000
-0.38522804	11.90222000	19.89807000
-0.38022804	11.90222000	20.12696000
-0.37522804	11.90222000	18.95199000
-0.37022804	11.90222000	16.40370000
-0.36522804	11.90222000	16.40370000
-0.36022804	11.90222000	18.95199000
-0.35522804	11.90222000	20.12696000
-0.35022804	11.90222000	19.89807000
-0.34522804	11.84118000	19.83703000
-0.34022804	11.61229000	19.83703000
-0.33522804	12.78725000	19.83703000
-0.33022804	15.33555000	19.83703000
-0.32522804	15.33555000	19.83703000
-0.32022804	12.78725000	19.83703000
-0.31522804	11.61229000	19.83703000
-0.31022804	11.84118000	19.83703000
-0.30522804	11.84118000	19.83703000
-0.30022804	11.61229000	19.83703000
-0.29522804	12.72622000	19.83703000
-0.29022804	15.04562000	19.83703000
-0.28522804	16.22059000	19.83703000
-0.28022804	16.22059000	19.83703000
-0.27522804	15.04562000	19.89807000
-0.27022804	12.72622000	20.12696000
-0.26522804	11.55125000	19.01303000
-0.26022804	11.55125000	16.69362000
-0.25522804	12.78725000	15.51866000
-0.25022804	15.33555000	15.51866000
-0.24522804	15.33555000	16.69362000
-0.24022805	12.78725000	19.01303000
-0.23522805	11.55125000	20.12696000
-0.23022805	11.55125000	19.89807000
-0.22522805	12.72622000	19.83703000
-0.22022805	15.04562000	19.83703000
-0.21522805	16.15955000	19.83703000
-0.21022805	15.93066000	19.83703000
-0.20522805	15.86962000	19.83703000
-0.20022805	15.86962000	19.83703000
-0.19522805	15.86962000	19.83703000
-0.19022805	15.86962000	19.83703000
-0.18522805	15.86962000	19.83703000
-0.18022805	15.86962000	19.83703000
-0.17522805	15.86962000	19.83703000
-0.17022805	15.86962000	19.83703000
-0.16522805	15.86962000	19.83703000
-0.16022805	15.86962000	19.83703000
-0.15522805	15.86962000	19.83703000
-0.15022805	15.86962000	19.83703000
-0.14522805	15.86962000	19.83703000
-0.14022805	15.86962000	19.83703000
-0.13522805	15.93066000	19.83703000
-0.13022805	16.15955000	19.83703000
-0.12522805	14.98459000	19.83703000
-0.12022805	12.43629000	19.83703000
-0.11522805	12.43629000	19.83703000
-0.11022805	14.98459000	19.83703000
-0.10522805	16.15955000	19.83703000
-0.10022805	15.93066000	19.83703000
-0.09522805	15.80859000	19.89807000
-0.09022805	15.57970000	20.12696000
-0.08522805	16.63259000	19.01303000
-0.08022805	18.72310000	16.69362000
-0.07522805	20.78310000	15.64073000
-0.07022805	22.15644000	16.09851000
-0.06522805	26.45955000	15.04562000
-0.06022805	32.70058000	12.72622000
-0.05522805	37.99554000	11.67333000
-0.05022805	41.00161000	12.13111000
-0.04522805	47.34946000	11.07822000
-0.04022805	55.45213000	8.75881200
-0.03522805	63.05124000	7.64488600
-0.03022805	68.60561000	7.87377500
-0.02522805	73.77849000	7.99584900
-0.02022805	77.01345000	8.22473800
-0.01522805	82.24738000	7.11081200
-0.01022805	88.03064000	4.79140600
-0.00522805	94.43952000	3.67748000
-0.00022805	99.99390000	3.90636900
0.00477195	106.34170000	3.96740600
0.00977195	111.89610000	3.96740600
0.01477195	118.30500000	3.96740600
0.01977195	124.08820000	3.96740600
0.02477195	129.32220000	3.96740600
0.02977195	132.55710000	3.96740600
0.03477195	137.79110000	3.96740600
0.03977195	143.58960000	3.96740600
0.04477195	150.05950000	3.96740600
0.04977195	155.84280000	3.96740600
0.05477195	161.13770000	3.90636900
0.05977195	164.60160000	3.67748000
0.06477195	168.78260000	4.85244300
0.06977195	172.47530000	7.40073800
0.07477195	176.65640000	7.40073800
0.07977195	180.12020000	4.85244300
0.08477195	185.47620000	3.61644300
0.08977195	191.48840000	3.61644300
0.09477195	196.84440000	4.79140600
0.09977195	200.30820000	7.11081200
0.10477195	204.48930000	8.28577500
0.10977195	208.18200000	8.28577500
0.11477195	212.42410000	7.11081200
0.11977195	216.13210000	4.79140600
0.12477195	220.43520000	3.67748000
0.12977195	224.35680000	3.90636900
0.13477195	227.54600000	3.96740600
0.13977195	229.14820000	3.96740600
0.14477195	231.16240000	3.96740600
0.14977195	232.76470000	3.96740600
0.15477195	236.06070000	3.96740600
0.15977195	240.47060000	3.96740600
0.16477195	242.57640000	3.96740600
0.16977195	241.88970000	3.96740600
0.17477195	242.88150000	3.96740600
0.17977195	245.20090000	3.96740600
0.18477195	246.37590000	3.90636900
0.18977195	246.37590000	3.67748000
0.19477195	245.26200000	4.79140600
0.19977195	243.17150000	7.11081200
0.20477195	241.05040000	8.16370100
0.20977195	239.44820000	7.70592300
0.21477195	236.19800000	8.75881200
0.21977195	232.04750000	11.07822000
0.22477195	228.79730000	12.19214000
0.22977195	227.19500000	11.96325000
0.23477195	225.18080000	11.90222000
0.23977195	223.57860000	11.90222000
0.24477195	220.32840000	11.90222000
0.24977195	216.17790000	11.90222000
0.25477195	212.92760000	11.90222000
0.25977195	211.31020000	11.90222000
0.26477195	209.29590000	11.90222000
0.26977195	207.69370000	11.90222000
0.27477195	204.44350000	11.90222000
0.27977195	200.29300000	11.90222000
0.28477195	197.04280000	11.90222000
0.28977195	195.44050000	11.90222000
0.29477195	193.31950000	11.90222000
0.29977195	191.22900000	11.90222000
0.30477195	190.23710000	11.90222000
0.30977195	190.69490000	11.90222000
0.31477195	189.70300000	11.90222000
0.31977195	187.61250000	11.90222000
0.32477195	185.38470000	11.96325000
0.32977195	183.29410000	12.19214000
0.33477195	182.30230000	11.07822000
0.33977195	182.76010000	8.75881200
0.34477195	181.76820000	7.64488600
0.34977195	179.67770000	7.87377500
0.35477195	177.44990000	7.93481200
0.35977195	175.35930000	7.93481200
0.36477195	174.30650000	7.93481200
0.36977195	174.53530000	7.93481200
0.37477195	174.65740000	7.93481200
0.37977195	174.88630000	7.93481200
0.38477195	173.77240000	7.93481200
0.38977195	171.45300000	7.93481200
0.39477195	170.33910000	7.93481200
0.39977195	170.56790000	7.93481200
0.40477195	170.62900000	7.93481200
0.40977195	170.62900000	7.93481200
0.41477195	170.69000000	7.93481200
0.41977195	170.91890000	7.93481200
0.42477195	169.80500000	7.87377500
0.42977195	167.48560000	7.64488600
0.43477195	166.37160000	8.75881200
0.43977195	166.60050000	11.07822000
0.44477195	166.66160000	12.19214000
0.44977195	166.66160000	11.96325000
0.45477195	166.66160000	11.90222000
0.45977195	166.66160000	11.90222000
0.46477195	166.66160000	11.90222000
0.46977195	166.66160000	11.90222000
0.47477195	166.72260000	11.90222000
0.47977195	166.95150000	11.90222000
0.48477195	165.83760000	11.90222000
0.48977195	163.51820000	11.90222000
0.49477195	162.40430000	11.90222000
0.49977195	162.63310000	11.90222000
0.50477195	162.69420000	11.90222000
0.50977195	162.69420000	11.90222000
0.51477195	162.69420000	11.90222000
0.51977195	162.69420000	11.90222000
0.52477195	162.69420000	11.90222000
0.52977195	162.69420000	11.90222000
0.53477195	162.69420000	11.90222000
0.53977195	162.69420000	11.90222000
0.54477195	162.75520000	11.90222000
0.54977195	162.98410000	11.90222000
0.55477195	161.87020000	11.90222000
0.55977195	159.55080000	11.90222000
0.56477195	158.43680000	11.90222000
0.56977195	158.66570000	11.90222000
0.57477195	158.72680000	11.90222000
0.57977195	158.72680000	11.90222000
0.58477195	158.72680000	11.90222000
0.58977195	158.72680000	11.90222000
0.59477195	158.72680000	11.90222000
0.59977195	158.72680000	11.90222000
0.60477195	158.78780000	11.84118000
0.60977195	159.01670000	11.61229000
0.61477195	157.90280000	12.72622000
0.61977195	155.58340000	15.04562000
0.62477195	154.46940000	16.15955000
0.62977195	154.69830000	15.93066000
0.63477195	154.75940000	15.86962000
0.63977195	154.75940000	15.86962000
0.64477195	154.82040000	15.86962000
0.64977195	155.04930000	15.86962000
0.65477195	153.93530000	15.86962000
0.65977195	151.61590000	15.86962000
0.66477195	150.50200000	15.86962000
0.66977195	150.73090000	15.86962000
0.67477195	150.79190000	15.86962000
0.67977195	150.79190000	15.86962000
0.68477195	150.79190000	15.86962000
0.68977195	150.79190000	15.86962000
0.69477195	150.85300000	15.86962000
0.69977195	151.08190000	15.86962000
0.70477195	149.96790000	15.86962000
0.70977195	147.64850000	15.86962000
0.71477195	146.53460000	15.86962000
0.71977195	146.76350000	15.86962000
0.72477195	146.82450000	15.86962000
0.72977195	146.82450000	15.86962000
0.73477195	146.82450000	15.86962000
0.73977195	146.82450000	15.86962000
0.74477195	146.82450000	15.86962000
0.74977195	146.82450000	15.86962000
0.75477195	146.88560000	15.86962000
0.75977195	147.11450000	15.86962000
0.76477195	146.00050000	15.86962000
0.76977195	143.68110000	15.86962000
0.77477195	142.56720000	15.86962000
0.77977195	142.79610000	15.86962000
0.78477195	142.85710000	15.86962000
0.78977195	142.85710000	15.86962000
0.79477195	142.85710000	15.86962000
0.79977195	142.85710000	15.86962000
0.80477195	142.85710000	15.86962000
0.80977195	142.85710000	15.86962000
0.81477195	142.91820000	15.86962000
0.81977195	143.14710000	15.86962000
0.82477195	142.03310000	15.86962000
0.82977195	139.69850000	15.86962000
0.83477195	138.58450000	15.86962000
0.83977195	138.81340000	15.86962000
0.84477195	138.87450000	15.86962000
0.84977195	138.87450000	15.86962000
0.85477195	138.87450000	15.80859000
0.85977195	138.87450000	15.57970000
0.86477195	138.93550000	16.75466000
0.86977195	139.16440000	19.30296000
0.87477195	138.05050000	19.24192000
0.87977195	135.73110000	16.46474000
0.88477195	134.61710000	16.40370000
0.88977195	134.84600000	18.95199000
0.89477195	134.90710000	20.12696000
0.89977195	134.90710000	19.89807000
0.90477195	134.90710000	19.83703000
0.90977195	134.90710000	19.83703000
0.91477195	134.90710000	19.89807000
0.91977195	134.90710000	20.12696000
0.92477195	134.96810000	18.95199000
0.92977195	135.19700000	16.40370000
0.93477195	134.08310000	16.46474000
0.93977195	131.76370000	19.24192000
0.94477195	130.64970000	19.30296000
0.94977195	130.87860000	16.75466000
0.95477195	130.93970000	15.57970000
0.95977195	130.93970000	15.80859000
0.96477195	130.93970000	15.86962000
0.96977195	130.93970000	15.86962000
0.97477195	130.93970000	15.86962000
0.97977195	130.93970000	15.86962000
0.98477195	131.00070000	15.80859000
0.98977195	131.22960000	15.57970000
0.99477195	130.05460000	16.69362000
0.99977195	127.50630000	19.01303000
1.00477195	127.56740000	20.12696000
1.00977195	130.34450000	19.89807000
1.01477195	130.40560000	19.89807000
1.01977195	127.85730000	20.12696000
1.02477195	126.68230000	18.95199000
1.02977195	126.91120000	16.40370000
1.03477195	126.97230000	16.40370000
1.03977195	126.97230000	18.95199000
1.04477195	127.03330000	20.12696000
1.04977195	127.26220000	19.89807000
1.05477195	126.08720000	19.83703000
1.05977195	123.53890000	19.83703000
1.06477195	123.60000000	19.83703000
1.06977195	126.37710000	19.83703000
1.07477195	126.43820000	19.83703000
1.07977195	123.88990000	19.83703000
1.08477195	122.71490000	19.83703000
1.08977195	122.94380000	19.83703000
1.09477195	123.00480000	19.83703000
1.09977195	123.00480000	19.83703000
1.10477195	123.00480000	19.83703000
1.10977195	123.00480000	19.83703000
1.11477195	123.06590000	19.83703000
1.11977195	123.29480000	19.83703000
1.12477195	122.18080000	19.83703000
1.12977195	119.86140000	19.83703000
1.13477195	118.74750000	19.83703000
1.13977195	118.97640000	19.83703000
1.14477195	119.03740000	19.83703000
1.14977195	119.03740000	19.83703000
1.15477195	119.03740000	19.83703000
1.15977195	119.03740000	19.83703000
1.16477195	119.03740000	19.89807000
1.16977195	119.03740000	20.12696000
1.17477195	119.03740000	18.95199000
1.17977195	119.03740000	16.40370000
1.18477195	119.03740000	16.46474000
1.18977195	119.03740000	19.24192000
1.19477195	119.03740000	19.30296000
1.19977195	119.03740000	16.75466000
1.20477195	119.03740000	15.57970000
1.20977195	119.03740000	15.80859000
1.21477195	119.03740000	15.86962000
1.21977195	119.03740000	15.86962000
1.22477195	119.09850000	15.80859000
1.22977195	119.32740000	15.57970000
1.23477195	118.21340000	16.75466000
1.23977195	115.89400000	19.30296000
1.24477195	114.78010000	19.30296000
1.24977195	115.00900000	16.75466000
1.25477195	115.07000000	15.57970000
1.25977195	115.07000000	15.80859000
1.26477195	115.07000000	15.86962000
1.26977195	115.07000000	15.86962000
1.27477195	115.07000000	15.80859000
1.27977195	115.07000000	15.57970000
1.28477195	115.13110000	16.69362000
1.28977195	115.36000000	19.01303000
1.29477195	114.24600000	20.12696000
1.29977195	111.92660000	19.89807000
1.30477195	110.81270000	19.83703000
1.30977195	111.04160000	19.83703000
1.31477195	111.10260000	19.83703000
1.31977195	111.10260000	19.83703000
1.32477195	111.10260000	19.83703000
1.32977195	111.10260000	19.83703000
1.33477195	111.10260000	19.83703000
1.33977195	111.10260000	19.83703000
1.34477195	111.10260000	19.83703000
1.34977195	111.10260000	19.83703000
1.35477195	111.10260000	19.83703000
1.35977195	111.10260000	19.83703000
1.36477195	111.10260000	19.83703000
1.36977195	111.10260000	19.83703000
1.37477195	111.10260000	19.83703000
1.37977195	111.10260000	19.83703000
1.38477195	111.16370000	19.83703000
1.38977195	111.39250000	19.83703000
1.39477195	110.27860000	19.83703000
1.39977195	107.95920000	19.83703000
1.40477194	106.84530000	19.83703000
1.40977194	107.07420000	19.83703000
1.41477194	107.13520000	19.83703000
1.41977194	107.13520000	19.83703000
1.42477194	107.13520000	19.83703000
1.42977194	107.13520000	19.83703000
1.43477194	107.13520000	19.83703000
1.43977194	107.13520000	19.83703000
1.44477194	107.13520000	19.83703000
1.44977194	107.13520000	19.83703000
1.45477194	107.19630000	19.83703000
1.45977194	107.42510000	19.83703000
1.46477194	106.31120000	19.83703000
1.46977194	103.99180000	19.83703000
1.47477194	102.87790000	19.83703000
1.47977194	103.10680000	19.83703000
1.48477194	103.16780000	19.83703000
1.48977194	103.16780000	19.83703000
1.49477194	103.16780000	19.83703000
1.49977194	103.16780000	19.83703000
1.50477194	103.16780000	19.89807000
1.50977194	103.16780000	20.12696000
1.51477194	103.16780000	18.95199000
1.51977194	103.16780000	16.40370000
1.52477194	103.16780000	16.40370000
1.52977194	103.16780000	18.95199000
1.53477194	103.22890000	20.12696000
1.53977194	103.45770000	19.89807000
1.54477194	102.34380000	19.83703000
1.54977194	100.02440000	19.83703000
1.55477194	98.91048000	19.89807000
1.55977194	99.13937000	20.12696000
1.56477194	99.20041000	18.95199000
1.56977194	99.20041000	16.40370000
1.57477194	99.20041000	16.40370000
1.57977194	99.20041000	18.95199000
1.58477194	99.20041000	20.18799000
1.58977194	99.20041000	20.18799000
1.59477194	99.20041000	19.01303000
1.59977194	99.20041000	16.69362000
1.60477194	99.20041000	15.57970000
1.60977194	99.20041000	15.80859000
1.61477194	99.26145000	15.86962000
1.61977194	99.49034000	15.86962000
1.62477194	98.37641000	15.86962000
1.62977194	96.05700000	15.86962000
1.63477194	94.94308000	15.86962000
1.63977194	95.17197000	15.86962000
1.64477194	95.23300000	15.80859000
1.64977194	95.23300000	15.57970000
1.65477194	95.23300000	16.69362000
1.65977194	95.23300000	19.01303000
1.66477194	95.23300000	20.12696000
1.66977194	95.23300000	19.89807000
1.67477194	95.23300000	19.83703000
1.67977194	95.23300000	19.83703000
1.68477194	95.23300000	19.83703000
1.68977194	95.23300000	19.83703000
1.69477194	95.23300000	19.83703000
1.69977194	95.23300000	19.83703000
1.70477194	95.23300000	19.83703000
1.70977194	95.23300000	19.83703000
1.71477194	95.29404000	19.83703000
1.71977194	95.52293000	19.83703000
1.72477194	94.34796000	19.83703000
1.72977194	91.79967000	19.83703000
1.73477194	91.86070000	19.83703000
1.73977194	94.63789000	19.83703000
1.74477194	94.69893000	19.83703000
1.74977194	92.15063000	19.83703000
1.75477194	90.97568000	19.83703000
1.75977194	91.20457000	19.83703000
1.76477194	91.26560000	19.83703000
1.76977194	91.26560000	19.83703000
1.77477194	91.26560000	19.83703000
1.77977194	91.26560000	19.83703000
1.78477194	91.26560000	19.83703000
1.78977194	91.26560000	19.83703000
1.79477194	91.26560000	19.83703000
1.79977194	91.26560000	19.83703000
1.80477194	91.26560000	19.83703000
1.80977194	91.26560000	19.83703000
1.81477194	91.26560000	19.83703000
1.81977194	91.26560000	19.83703000
1.82477194	91.32664000	19.83703000
1.82977194	91.55552000	19.83703000
1.83477194	90.44160000	19.83703000
1.83977194	88.12219000	19.83703000
1.84477194	87.00826000	19.83703000
1.84977194	87.23715000	19.83703000
1.85477194	87.29819000	19.83703000
1.85977194	87.29819000	19.83703000
1.86477194	87.29819000	19.83703000
1.86977194	87.29819000	19.83703000
1.87477194	87.29819000	19.83703000
1.87977194	87.29819000	19.83703000
1.88477194	87.29819000	19.83703000
1.88977194	87.29819000	19.83703000
1.89477194	87.29819000	19.83703000
1.89977194	87.29819000	19.83703000
1.90477194	87.29819000	19.83703000
1.90977194	87.29819000	19.83703000
1.91477194	87.29819000	19.83703000
1.91977194	87.29819000	19.83703000
1.92477194	87.29819000	19.83703000
1.92977194	87.29819000	19.83703000
1.93477194	87.29819000	19.83703000
1.93977194	87.29819000	19.83703000
1.94477194	87.29819000	19.83703000
1.94977194	87.29819000	19.83703000
1.95477194	87.35923000	19.83703000
1.95977194	87.58812000	19.83703000
1.96477194	86.47419000	19.83703000
1.96977194	84.15479000	19.83703000
1.97477194	83.04086000	19.83703000
1.97977194	83.26974000	19.83703000
1.98477194	83.33078000	19.83703000
1.98977194	83.33078000	19.83703000
1.99477194	83.33078000	19.83703000
1.99977194	83.33078000	19.83703000
2.00477194	83.33078000	19.83703000
2.00977194	83.33078000	19.83703000
2.01477194	83.33078000	19.83703000
2.01977194	83.33078000	19.83703000
2.02477194	83.33078000	19.83703000
2.02977194	83.33078000	19.83703000
2.03477194	83.33078000	19.83703000
2.03977194	83.33078000	19.83703000
2.04477194	83.33078000	19.83703000
2.04977194	83.33078000	19.83703000
2.05477194	83.33078000	19.83703000
2.05977194	83.33078000	19.83703000
2.06477194	83.33078000	19.83703000
2.06977194	83.33078000	19.83703000
2.07477194	83.39182000	19.83703000
2.07977194	83.62070000	19.83703000
2.08477194	82.50678000	19.83703000
2.08977194	80.18738000	19.83703000
2.09477194	79.07346000	19.83703000
2.09977194	79.30235000	19.83703000
2.10477194	79.36338000	19.83703000
2.10977194	79.36338000	19.83703000
2.11477194	79.36338000	19.83703000
2.11977194	79.36338000	19.83703000
2.12477194	79.36338000	19.83703000
2.12977194	79.36338000	19.83703000
2.13477194	79.36338000	19.83703000
2.13977194	79.36338000	19.83703000
2.14477194	79.36338000	19.83703000
2.14977194	79.36338000	19.83703000
2.15477194	79.36338000	19.83703000
2.15977194	79.36338000	19.83703000
2.16477194	79.36338000	19.83703000
2.16977194	79.36338000	19.83703000
2.17477194	79.36338000	19.83703000
2.17977194	79.36338000	19.83703000
2.18477194	79.42442000	19.83703000
2.18977194	79.65331000	19.83703000
2.19477194	78.47834000	19.83703000
2.19977194	75.93005000	19.83703000
2.20477194	75.99108000	19.83703000
2.20977194	78.76827000	19.83703000
2.21477194	78.82931000	19.83703000
2.21977194	76.28101000	19.83703000
2.22477194	75.10605000	19.83703000
2.22977194	75.33494000	19.83703000
2.23477194	75.39597000	19.83703000
2.23977194	75.39597000	19.83703000
2.24477194	75.39597000	19.83703000
2.24977194	75.39597000	19.83703000
2.25477194	75.39597000	19.83703000
2.25977194	75.39597000	19.83703000
2.26477194	75.39597000	19.83703000
2.26977194	75.39597000	19.83703000
2.27477194	75.39597000	19.83703000
2.27977194	75.39597000	19.83703000
2.28477194	75.39597000	19.83703000
2.28977194	75.39597000	19.83703000
2.29477194	75.39597000	19.83703000
2.29977194	75.39597000	19.83703000
2.30477194	75.45701000	19.83703000
2.30977194	75.68590000	19.83703000
2.31477194	74.57197000	19.83703000
2.31977194	72.25256000	19.83703000
2.32477194	71.13864000	19.77599000
2.32977194	71.36753000	19.54710000
2.33477194	71.42857000	20.72207000
2.33977194	71.42857000	23.27036000
2.34477194	71.42857000	23.27036000
2.34977194	71.42857000	20.72207000
2.35477194	71.42857000	19.54710000
2.35977194	71.42857000	19.77599000
2.36477194	71.42857000	19.83703000
2.36977194	71.42857000	19.83703000
2.37477194	71.42857000	19.83703000
2.37977194	71.42857000	19.83703000
2.38477194	71.42857000	19.83703000
2.38977194	71.42857000	19.83703000
2.39477194	71.42857000	19.83703000
2.39977194	71.42857000	19.83703000
2.40477194	71.42857000	19.83703000
2.40977194	71.42857000	19.83703000
2.41477194	71.48961000	19.83703000
2.41977194	71.71850000	19.83703000
2.42477194	70.54353000	19.83703000
2.42977194	67.97997000	19.83703000
2.43477194	67.97997000	19.83703000
2.43977194	70.54353000	19.83703000
2.44477194	71.77953000	19.83703000
2.44977194	71.77953000	19.83703000
2.45477194	70.60457000	19.77599000
2.45977194	68.26991000	19.54710000
2.46477194	67.15598000	20.72207000
2.46977194	67.38486000	23.27036000
2.47477194	67.44590000	23.20932000
2.47977194	67.44590000	20.43214000
2.48477194	67.44590000	20.37111000
2.48977194	67.44590000	22.91940000
2.49477194	67.44590000	24.15540000
2.49977194	67.44590000	24.15540000
2.50477194	67.44590000	22.91940000
2.50977194	67.44590000	20.37111000
2.51477194	67.44590000	20.43214000
2.51977194	67.44590000	23.20932000
2.52477194	67.44590000	23.27036000
2.52977194	67.44590000	20.72207000
2.53477194	67.44590000	19.54710000
2.53977194	67.44590000	19.77599000
2.54477194	67.44590000	19.83703000
2.54977194	67.44590000	19.83703000
2.55477194	67.44590000	19.83703000
2.55977194	67.44590000	19.83703000
2.56477194	67.44590000	19.83703000
2.56977194	67.44590000	19.83703000
2.57477194	67.44590000	19.83703000
2.57977194	67.44590000	19.83703000
2.58477194	67.44590000	19.83703000
2.58977194	67.44590000	19.83703000
2.59477194	67.50694000	19.83703000
2.59977194	67.73582000	19.83703000
2.60477194	66.56087000	19.83703000
2.60977194	64.01257000	19.83703000
2.61477194	64.07360000	19.83703000
2.61977194	66.85079000	19.83703000
2.62477194	66.91183000	19.83703000
2.62977194	64.36353000	19.83703000
2.63477194	63.18857000	19.83703000
2.63977194	63.41746000	19.83703000
2.64477194	63.47850000	19.83703000
2.64977194	63.47850000	19.83703000
2.65477194	63.47850000	19.83703000
2.65977194	63.47850000	19.83703000
2.66477194	63.47850000	19.83703000
2.66977194	63.47850000	19.83703000
2.67477194	63.47850000	19.83703000
2.67977194	63.47850000	19.83703000
2.68477194	63.47850000	19.83703000
2.68977194	63.47850000	19.83703000
2.69477194	63.47850000	19.83703000
2.69977194	63.47850000	19.83703000
2.70477194	63.47850000	19.83703000
2.70977194	63.47850000	19.83703000
2.71477194	63.47850000	19.83703000
2.71977194	63.47850000	19.83703000
2.72477194	63.53953000	19.83703000
2.72977194	63.76842000	19.83703000
2.73477194	62.65450000	19.83703000
2.73977194	60.33509000	19.83703000
2.74477194	59.16013000	19.83703000
2.74977194	59.16013000	19.83703000
2.75477194	60.33509000	19.83703000
2.75977194	62.65450000	19.83703000
2.76477194	63.76842000	19.83703000
2.76977194	63.53953000	19.83703000
2.77477194	63.53953000	19.83703000
2.77977194	63.76842000	19.83703000
2.78477194	62.65450000	19.83703000
2.78977194	60.33509000	19.83703000
2.79477194	59.22116000	19.83703000
2.79977194	59.45005000	19.83703000
2.80477194	59.51109000	19.83703000
2.80977194	59.51109000	19.83703000
2.81477194	59.51109000	19.83703000
2.81977194	59.51109000	19.83703000
2.82477194	59.51109000	19.83703000
2.82977194	59.51109000	19.83703000
2.83477194	59.51109000	19.83703000
2.83977194	59.51109000	19.83703000
2.84477194	59.51109000	19.83703000
2.84977194	59.51109000	19.83703000
2.85477194	59.51109000	19.83703000
2.85977194	59.51109000	19.83703000
2.86477194	59.51109000	19.77599000
2.86977194	59.51109000	19.54710000
2.87477194	59.51109000	20.72207000
2.87977194	59.51109000	23.27036000
2.88477194	59.51109000	23.27036000
2.88977194	59.51109000	20.72207000
2.89477194	59.51109000	19.54710000
2.89977194	59.51109000	19.77599000
2.90477194	59.57213000	19.83703000
2.90977194	59.80102000	19.83703000
2.91477194	58.62605000	19.83703000
2.91977194	56.07775000	19.83703000
2.92477194	56.13879000	19.83703000
2.92977194	58.91598000	19.83703000
2.93477194	58.97702000	19.83703000
2.93977194	56.42872000	19.83703000
2.94477194	55.25376000	19.83703000
2.94977194	55.48264000	19.83703000
2.95477194	55.54368000	19.83703000
2.95977194	55.54368000	19.83703000
2.96477194	55.54368000	19.83703000
2.96977194	55.54368000	19.83703000
2.97477194	55.54368000	19.83703000
2.97977194	55.54368000	19.83703000
2.98477194	55.54368000	19.83703000
2.98977194	55.54368000	19.83703000
2.99477194	55.54368000	19.83703000
2.99977194	55.54368000	19.83703000
3.00477194	55.54368000	19.83703000
3.00977194	55.54368000	19.83703000
3.01477194	55.54368000	19.83703000
3.01977194	55.54368000	19.83703000
3.02477194	55.54368000	19.83703000
3.02977194	55.54368000	19.83703000
3.03477194	55.54368000	19.83703000
3.03977194	55.54368000	19.83703000
3.04477194	55.54368000	19.83703000
3.04977193	55.54368000	19.83703000
3.05477193	55.54368000	19.83703000
3.05977193	55.54368000	19.83703000
3.06477193	55.54368000	19.83703000
3.06977193	55.54368000	19.83703000
3.07477193	55.54368000	19.83703000
3.07977193	55.54368000	19.83703000
3.08477193	55.60472000	19.83703000
3.08977193	55.83361000	19.83703000
3.09477193	54.65865000	19.83703000
3.09977193	52.11035000	19.83703000
3.10477193	52.17139000	19.83703000
3.10977193	54.94857000	19.83703000
3.11477193	55.00961000	19.83703000
3.11977193	52.46132000	19.83703000
3.12477193	51.28635000	19.83703000
3.12977193	51.51524000	19.83703000
3.13477193	51.57627000	19.83703000
3.13977193	51.57627000	19.83703000
3.14477193	51.57627000	19.83703000
3.14977193	51.57627000	19.83703000
3.15477193	51.57627000	19.83703000
3.15977193	51.57627000	19.83703000
3.16477193	51.57627000	19.83703000
3.16977193	51.57627000	19.83703000
3.17477193	51.57627000	19.83703000
3.17977193	51.57627000	19.83703000
3.18477193	51.57627000	19.83703000
3.18977193	51.57627000	19.83703000
3.19477193	51.57627000	19.83703000
3.19977193	51.57627000	19.83703000
3.20477193	51.57627000	19.83703000
3.20977193	51.57627000	19.83703000
3.21477193	51.57627000	19.83703000
3.21977193	51.57627000	19.83703000
3.22477193	51.57627000	19.83703000
3.22977193	51.57627000	19.83703000
3.23477193	51.57627000	19.83703000
3.23977193	51.57627000	19.83703000
3.24477193	51.63731000	19.83703000
3.24977193	51.86620000	19.83703000
3.25477193	50.69124000	19.83703000
3.25977193	48.14294000	19.83703000
3.26477193	48.14294000	19.83703000
3.26977193	50.69124000	19.83703000
3.27477193	51.86620000	19.83703000
3.27977193	51.63731000	19.83703000
3.28477193	51.63731000	19.83703000
3.28977193	51.86620000	19.83703000
3.29477193	50.75228000	19.83703000
3.29977193	48.43287000	19.83703000
3.30477193	47.25791000	19.83703000
3.30977193	47.25791000	19.83703000
3.31477193	48.49391000	19.77599000
3.31977193	51.04220000	19.54710000
3.32477193	51.04220000	20.72207000
3.32977193	48.49391000	23.27036000
3.33477193	47.31895000	23.27036000
3.33977193	47.54784000	20.72207000
3.34477193	47.60887000	19.54710000
3.34977193	47.60887000	19.77599000
3.35477193	47.60887000	19.83703000
3.35977193	47.60887000	19.83703000
3.36477193	47.60887000	19.83703000
3.36977193	47.60887000	19.83703000
3.37477193	47.60887000	19.83703000
3.37977193	47.60887000	19.83703000
3.38477193	47.60887000	19.83703000
3.38977193	47.60887000	19.83703000
3.39477193	47.60887000	19.83703000
3.39977193	47.60887000	19.83703000
3.40477193	47.60887000	19.83703000
3.40977193	47.60887000	19.83703000
3.41477193	47.60887000	19.83703000
3.41977193	47.60887000	19.83703000
3.42477193	47.60887000	19.83703000
3.42977193	47.60887000	19.83703000
3.43477193	47.60887000	19.83703000
3.43977193	47.60887000	19.83703000
3.44477193	47.60887000	19.83703000
3.44977193	47.60887000	19.83703000
3.45477193	47.60887000	19.83703000
3.45977193	47.60887000	19.83703000
3.46477193	47.60887000	19.83703000
3.46977193	47.60887000	19.83703000
3.47477193	47.60887000	19.83703000
3.47977193	47.60887000	19.83703000
3.48477193	47.60887000	19.83703000
3.48977193	47.60887000	19.83703000
3.49477193	47.60887000	19.83703000
3.49977193	47.60887000	19.83703000
3.50477193	47.60887000	19.83703000
3.50977193	47.60887000	19.83703000
3.51477193	47.60887000	19.83703000
3.51977193	47.60887000	19.83703000
3.52477193	47.60887000	19.83703000
3.52977193	47.60887000	19.83703000
3.53477193	47.60887000	19.83703000
3.53977193	47.60887000	19.83703000
3.54477193	47.66991000	19.83703000
3.54977193	47.89880000	19.83703000
3.55477193	46.72383000	19.83703000
3.55977193	44.17554000	19.83703000
3.56477193	44.17554000	19.83703000
3.56977193	46.72383000	19.83703000
3.57477193	47.89880000	19.83703000
3.57977193	47.66991000	19.83703000
3.58477193	47.60887000	19.83703000
3.58977193	47.60887000	19.83703000
3.59477193	47.60887000	19.83703000
3.59977193	47.60887000	19.83703000
3.60477193	47.60887000	19.83703000
3.60977193	47.60887000	19.83703000
3.61477193	47.66991000	19.83703000
3.61977193	47.89880000	19.83703000
3.62477193	46.78487000	19.83703000
3.62977193	44.46547000	19.83703000
3.63477193	43.35154000	19.83703000
3.63977193	43.58043000	19.83703000
3.64477193	43.64147000	19.77599000
3.64977193	43.64147000	19.54710000
3.65477193	43.64147000	20.66103000
3.65977193	43.64147000	22.98043000
3.66477193	43.64147000	24.09436000
3.66977193	43.64147000	23.86547000
3.67477193	43.64147000	23.86547000
3.67977193	43.64147000	24.09436000
3.68477193	43.64147000	22.91940000
3.68977193	43.64147000	20.37111000
3.69477193	43.64147000	20.37111000
3.69977193	43.64147000	22.91940000
3.70477193	43.64147000	24.03333000
3.70977193	43.64147000	23.57555000
3.71477193	43.64147000	24.56740000
3.71977193	43.64147000	26.65792000
3.72477193	43.64147000	28.77895000
3.72977193	43.64147000	30.38117000
3.73477193	43.64147000	33.57036000
3.73977193	43.64147000	37.49199000
3.74477193	43.64147000	41.67302000
3.74977193	43.64147000	44.90799000
3.75477193	43.64147000	51.25583000
3.75977193	43.64147000	59.11435000
3.76477193	43.64147000	67.72057000
3.76977193	43.64147000	75.12131000
3.77477193	43.64147000	83.54441000
3.77977193	43.64147000	90.70101000
3.78477193	43.70250000	100.29910000
3.78977193	43.93139000	110.00400000
3.79477193	42.75643000	119.60200000
3.79977193	40.20813000	126.75860000
3.80477193	40.26917000	135.24280000
3.80977193	43.04636000	142.87240000
3.81477193	43.10739000	150.30360000
3.81977193	40.55910000	155.61390000
3.82477193	39.38414000	161.96170000
3.82977193	39.61302000	167.74500000
3.83477193	39.61302000	173.10100000
3.83977193	39.38414000	176.79370000
3.84477193	40.55910000	179.96770000
3.84977193	43.10739000	181.82930000
3.85477193	43.04636000	182.76010000
3.85977193	40.26917000	182.30230000
3.86477193	40.20813000	183.41620000
3.86977193	42.75643000	185.96450000
3.87477193	43.99243000	186.02560000
3.87977193	43.99243000	183.70610000
3.88477193	42.81747000	181.47830000
3.88977193	40.49806000	179.61670000
3.89477193	39.38414000	177.51090000
3.89977193	39.61302000	175.64930000
3.90477193	39.67406000	173.58930000
3.90977193	39.67406000	171.98700000
3.91477193	39.67406000	168.73680000
3.91977193	39.67406000	164.58630000
3.92477193	39.61302000	161.39710000
3.92977193	39.38414000	160.02380000
3.93477193	40.55910000	156.89560000
3.93977193	43.10739000	152.97400000
3.94477193	43.10739000	148.60990000
3.94977193	40.55910000	144.68820000
3.95477193	39.38414000	141.56010000
3.95977193	39.61302000	140.17150000
3.96477193	39.67406000	136.98230000
3.96977193	39.67406000	132.83180000
3.97477193	39.67406000	129.64260000
3.97977193	39.67406000	128.26930000
3.98477193	39.67406000	125.14110000
3.98977193	39.67406000	121.21950000
3.99477193	39.67406000	116.85540000
3.99977193	39.67406000	112.93370000
4.00477193	39.67406000	109.74460000
4.00977193	39.67406000	108.14230000
4.01477193	39.67406000	106.08230000
4.01977193	39.67406000	104.22070000
4.02477193	39.67406000	102.16070000
4.02977193	39.67406000	100.55850000
4.03477193	39.67406000	97.26248000
4.03977193	39.67406000	92.85255000
4.04477193	39.67406000	90.74679000
4.04977193	39.67406000	91.43345000
4.05477193	39.67406000	90.50264000
4.05977193	39.67406000	88.41212000
4.06477193	39.67406000	86.18427000
4.06977193	39.67406000	84.09374000
4.07477193	39.67406000	83.10189000
4.07977193	39.67406000	83.55967000
4.08477193	39.67406000	82.56782000
4.08977193	39.67406000	80.47731000
4.09477193	39.67406000	78.24945000
4.09977193	39.67406000	76.15894000
4.10477193	39.67406000	75.16708000
4.10977193	39.67406000	75.62486000
4.11477193	39.67406000	74.63301000
4.11977193	39.67406000	72.54249000
4.12477193	39.67406000	70.29939000
4.12977193	39.67406000	68.20886000
4.13477193	39.67406000	67.21701000
4.13977193	39.67406000	67.67479000
4.14477193	39.73510000	66.62190000
4.14977193	39.96399000	64.30249000
4.15477193	38.78902000	63.24961000
4.15977193	36.24073000	63.70739000
4.16477193	36.24073000	62.65450000
4.16977193	38.78902000	60.33509000
4.17477193	39.96399000	59.28220000
4.17977193	39.73510000	59.73998000
4.18477193	39.67406000	58.68709000
4.18977193	39.67406000	56.36768000
4.19477193	39.67406000	55.25376000
4.19977193	39.67406000	55.48264000
4.20477193	39.67406000	55.60472000
4.20977193	39.67406000	55.83361000
4.21477193	39.73510000	54.71968000
4.21977193	39.96399000	52.40028000
4.22477193	38.78902000	51.28635000
4.22977193	36.24073000	51.51524000
4.23477193	36.24073000	51.57627000
4.23977193	38.78902000	51.57627000
4.24477193	39.96399000	51.63731000
4.24977193	39.73510000	51.86620000
4.25477193	39.67406000	50.75228000
4.25977193	39.67406000	48.43287000
4.26477193	39.73510000	47.31895000
4.26977193	39.96399000	47.54784000
4.27477193	38.78902000	47.66991000
4.27977193	36.24073000	47.89880000
4.28477193	36.30176000	46.78487000
4.28977193	39.07895000	44.46547000
4.29477193	39.07895000	43.35154000
4.29977193	36.30176000	43.58043000
4.30477193	36.30176000	43.64147000
4.30977193	39.07895000	43.64147000
4.31477193	39.13999000	43.64147000
4.31977193	36.59169000	43.64147000
4.32477193	35.41673000	43.64147000
4.32977193	35.64562000	43.64147000
4.33477193	35.70665000	43.64147000
4.33977193	35.70665000	43.64147000
4.34477193	35.70665000	43.64147000
4.34977193	35.70665000	43.64147000
4.35477193	35.70665000	43.70250000
4.35977193	35.70665000	43.93139000
4.36477193	35.70665000	42.81747000
4.36977193	35.70665000	40.49806000
4.37477193	35.70665000	39.38414000
4.37977193	35.70665000	39.61302000
4.38477193	35.70665000	39.67406000
4.38977193	35.70665000	39.67406000
4.39477193	35.70665000	39.67406000
4.39977193	35.70665000	39.67406000
4.40477193	35.70665000	39.67406000
4.40977193	35.70665000	39.67406000
4.41477193	35.70665000	39.67406000
4.41977193	35.70665000	39.67406000
4.42477193	35.70665000	39.73510000
4.42977193	35.70665000	39.96399000
4.43477193	35.70665000	38.85006000
4.43977193	35.70665000	36.53065000
4.44477193	35.70665000	35.41673000
4.44977193	35.70665000	35.64562000
4.45477193	35.70665000	35.70665000
4.45977193	35.70665000	35.70665000
4.46477193	35.70665000	35.70665000
4.46977193	35.70665000	35.70665000
4.47477193	35.70665000	35.70665000
4.47977193	35.70665000	35.70665000
4.48477193	35.70665000	35.70665000
4.48977193	35.70665000	35.70665000
4.49477193	35.70665000	35.70665000
4.49977193	35.70665000	35.70665000
4.50477193	35.70665000	35.70665000
4.50977193	35.70665000	35.70665000
4.51477193	35.70665000	35.70665000
4.51977193	35.70665000	35.70665000
4.52477193	35.70665000	35.70665000
4.52977193	35.70665000	35.70665000
4.53477193	35.70665000	35.70665000
4.53977193	35.70665000	35.70665000
4.54477193	35.70665000	35.70665000
4.54977193	35.70665000	35.70665000
4.55477193	35.70665000	35.70665000
4.55977193	35.70665000	35.70665000
4.56477193	35.76769000	35.70665000
4.56977193	35.99658000	35.70665000
4.57477193	34.82162000	35.70665000
4.57977193	32.27332000	35.70665000
4.58477193	32.33436000	35.70665000
4.58977193	35.11155000	35.70665000
4.59477193	35.17258000	35.70665000
4.59977193	32.62428000	35.70665000
4.60477193	31.38828000	35.70665000
4.60977193	31.38828000	35.70665000
4.61477193	32.56325000	35.70665000
4.61977193	34.88266000	35.70665000
4.62477193	35.99658000	35.76769000
4.62977193	35.76769000	35.99658000
4.63477193	35.76769000	34.88266000
4.63977193	35.99658000	32.56325000
4.64477193	34.82162000	31.44932000
4.64977193	32.27332000	31.67821000
4.65477193	32.33436000	31.73925000
4.65977193	35.11155000	31.73925000
4.66477193	35.11155000	31.67821000
4.66977193	32.33436000	31.44932000
4.67477193	32.27332000	32.62428000
4.67977193	34.82162000	35.17258000
4.68477193	36.05762000	35.17258000
4.68977193	36.05762000	32.62428000
4.69477192	34.88266000	31.44932000
4.69977192	32.56325000	31.67821000
4.70477192	31.44932000	31.73925000
4.70977192	31.67821000	31.73925000
4.71477192	31.73925000	31.73925000
4.71977192	31.73925000	31.73925000
4.72477192	31.73925000	31.73925000
4.72977192	31.73925000	31.73925000
4.73477192	31.73925000	31.73925000
4.73977192	31.73925000	31.73925000
4.74477192	31.73925000	31.73925000
4.74977192	31.73925000	31.73925000
4.75477192	31.73925000	31.73925000
4.75977192	31.73925000	31.73925000
4.76477192	31.73925000	31.73925000
4.76977192	31.73925000	31.73925000
4.77477192	31.73925000	31.73925000
4.77977192	31.73925000	31.73925000
4.78477192	31.73925000	31.73925000
4.78977192	31.73925000	31.73925000
4.79477192	31.73925000	31.73925000
4.79977192	31.73925000	31.73925000
4.80477192	31.73925000	31.73925000
4.80977192	31.73925000	31.73925000
4.81477192	31.73925000	31.73925000
4.81977192	31.73925000	31.73925000
4.82477192	31.73925000	31.73925000
4.82977192	31.73925000	31.73925000
4.83477192	31.73925000	31.73925000
4.83977192	31.73925000	31.73925000
4.84477192	31.73925000	31.73925000
4.84977192	31.73925000	31.73925000
4.85477192	31.73925000	31.73925000
4.85977192	31.73925000	31.73925000
4.86477192	31.73925000	31.73925000
4.86977192	31.73925000	31.73925000
4.87477192	31.73925000	31.73925000
4.87977192	31.73925000	31.73925000
4.88477192	31.73925000	31.73925000
4.88977192	31.73925000	31.73925000
4.89477192	31.73925000	31.73925000
4.89977192	31.73925000	31.73925000
4.90477192	31.73925000	31.73925000
4.90977192	31.73925000	31.73925000
4.91477192	31.73925000	31.73925000
4.91977192	31.73925000	31.73925000
4.92477192	31.73925000	31.80028000
4.92977192	31.73925000	32.02917000
4.93477192	31.73925000	30.91525000
4.93977192	31.73925000	28.59584000
4.94477192	31.73925000	27.42088000
4.94977192	31.73925000	27.42088000
4.95477192	31.73925000	28.59584000
4.95977192	31.73925000	30.91525000
4.96477192	31.73925000	32.09021000
4.96977192	31.73925000	32.09021000
4.97477192	31.73925000	30.91525000
4.97977192	31.73925000	28.59584000
4.98477192	31.73925000	27.48192000
4.98977192	31.73925000	27.71080000
4.99477192	31.73925000	27.77184000
4.99977192	31.73925000	27.77184000
5.00477192	31.73925000	27.77184000
5.00977192	31.73925000	27.77184000
5.01477192	31.73925000	27.77184000
5.01977192	31.73925000	27.77184000
5.02477192	31.73925000	27.77184000
5.02977192	31.73925000	27.77184000
5.03477192	31.73925000	27.77184000
5.03977192	31.73925000	27.77184000
5.04477192	31.73925000	27.77184000
5.04977192	31.73925000	27.77184000
5.05477192	31.73925000	27.77184000
5.05977192	31.73925000	27.77184000
5.06477192	31.73925000	27.77184000
5.06977192	31.73925000	27.77184000
5.07477192	31.73925000	27.77184000
5.07977192	31.73925000	27.77184000
5.08477192	31.73925000	27.77184000
5.08977192	31.73925000	27.77184000
5.09477192	31.73925000	27.77184000
5.09977192	31.73925000	27.77184000
5.10477192	31.73925000	27.71080000
5.10977192	31.73925000	27.48192000
5.11477192	31.73925000	28.59584000
5.11977192	31.73925000	30.91525000
5.12477192	31.73925000	32.02917000
5.12977192	31.73925000	31.80028000
5.13477192	31.73925000	31.73925000
5.13977192	31.73925000	31.73925000
5.14477192	31.80028000	31.73925000
5.14977192	32.02917000	31.73925000
5.15477192	30.85421000	31.73925000
5.15977192	28.30592000	31.73925000
5.16477192	28.30592000	31.80028000
5.16977192	30.85421000	32.02917000
5.17477192	32.02917000	30.85421000
5.17977192	31.80028000	28.30592000
5.18477192	31.73925000	28.36695000
5.18977192	31.73925000	31.14414000
5.19477192	31.80028000	31.20517000
5.19977192	32.02917000	28.65688000
5.20477192	30.85421000	27.48192000
5.20977192	28.30592000	27.71080000
5.21477192	28.36695000	27.77184000
5.21977192	31.14414000	27.77184000
5.22477192	31.14414000	27.77184000
5.22977192	28.36695000	27.77184000
5.23477192	28.30592000	27.77184000
5.23977192	30.85421000	27.77184000
5.24477192	32.02917000	27.77184000
5.24977192	31.80028000	27.77184000
5.25477192	31.73925000	27.77184000
5.25977192	31.73925000	27.77184000
5.26477192	31.80028000	27.77184000
5.26977192	32.02917000	27.77184000
5.27477192	30.85421000	27.77184000
5.27977192	28.30592000	27.77184000
5.28477192	28.30592000	27.77184000
5.28977192	30.85421000	27.77184000
5.29477192	32.02917000	27.77184000
5.29977192	31.80028000	27.77184000
5.30477192	31.80028000	27.77184000
5.30977192	32.02917000	27.77184000
5.31477192	30.91525000	27.77184000
5.31977192	28.59584000	27.77184000
5.32477192	27.42088000	27.77184000
5.32977192	27.42088000	27.77184000
5.33477192	28.65688000	27.77184000
5.33977192	31.20517000	27.77184000
5.34477192	31.20517000	27.77184000
5.34977192	28.65688000	27.77184000
5.35477192	27.48192000	27.77184000
5.35977192	27.71080000	27.77184000
5.36477192	27.77184000	27.77184000
5.36977192	27.77184000	27.77184000
5.37477192	27.77184000	27.77184000
5.37977192	27.77184000	27.77184000
5.38477192	27.77184000	27.77184000
5.38977192	27.77184000	27.77184000
5.39477192	27.77184000	27.77184000
5.39977192	27.77184000	27.77184000
5.40477192	27.77184000	27.77184000
5.40977192	27.77184000	27.77184000
5.41477192	27.77184000	27.77184000
5.41977192	27.77184000	27.77184000
5.42477192	27.77184000	27.77184000
5.42977192	27.77184000	27.77184000
5.43477192	27.77184000	27.77184000
5.43977192	27.77184000	27.77184000
5.44477192	27.77184000	27.83288000
5.44977192	27.77184000	28.06177000
5.45477192	27.77184000	26.94784000
5.45977192	27.77184000	24.62844000
5.46477192	27.71080000	23.45347000
5.46977192	27.48192000	23.45347000
5.47477192	28.65688000	24.62844000
5.47977192	31.20517000	26.94784000
5.48477192	31.20517000	28.12280000
5.48977192	28.65688000	28.12280000
5.49477192	27.48192000	26.88680000
5.49977192	27.71080000	24.33851000
5.50477192	27.77184000	24.33851000
5.50977192	27.77184000	26.88680000
5.51477192	27.77184000	28.06177000
5.51977192	27.77184000	27.83288000
5.52477192	27.77184000	27.77184000
5.52977192	27.77184000	27.77184000
5.53477192	27.77184000	27.77184000
5.53977192	27.77184000	27.77184000
5.54477192	27.77184000	27.77184000
5.54977192	27.77184000	27.77184000
5.55477192	27.77184000	27.77184000
5.55977192	27.77184000	27.77184000
5.56477192	27.77184000	27.83288000
5.56977192	27.77184000	28.06177000
5.57477192	27.77184000	26.94784000
5.57977192	27.77184000	24.62844000
5.58477192	27.77184000	23.45347000
5.58977192	27.77184000	23.45347000
5.59477192	27.77184000	24.62844000
5.59977192	27.77184000	26.94784000
5.60477192	27.77184000	28.06177000
5.60977192	27.77184000	27.83288000
5.61477192	27.77184000	27.83288000
5.61977192	27.77184000	28.06177000
5.62477192	27.77184000	26.88680000
5.62977192	27.77184000	24.33851000
5.63477192	27.77184000	24.33851000
5.63977192	27.77184000	26.88680000
5.64477192	27.77184000	28.06177000
5.64977192	27.77184000	27.83288000
5.65477192	27.77184000	27.77184000
5.65977192	27.77184000	27.77184000
5.66477192	27.77184000	27.83288000
5.66977192	27.77184000	28.06177000
5.67477192	27.77184000	26.88680000
5.67977192	27.77184000	24.33851000
5.68477192	27.77184000	24.33851000
5.68977192	27.77184000	26.88680000
5.69477192	27.77184000	28.06177000
5.69977192	27.77184000	27.83288000
5.70477192	27.77184000	27.77184000
5.70977192	27.77184000	27.77184000
5.71477192	27.77184000	27.77184000
5.71977192	27.77184000	27.77184000
5.72477192	27.77184000	27.77184000
5.72977192	27.77184000	27.77184000
5.73477192	27.77184000	27.77184000
5.73977192	27.77184000	27.77184000
5.74477192	27.77184000	27.77184000
5.74977192	27.77184000	27.77184000
5.75477192	27.77184000	27.77184000
5.75977192	27.77184000	27.77184000
5.76477192	27.77184000	27.77184000
5.76977192	27.77184000	27.77184000
5.77477192	27.77184000	27.83288000
5.77977192	27.77184000	28.06177000
5.78477192	27.77184000	26.88680000
5.78977192	27.77184000	24.33851000
5.79477192	27.77184000	24.39955000
5.79977192	27.77184000	27.17673000
5.80477192	27.77184000	27.17673000
5.80977192	27.77184000	24.39955000
5.81477192	27.77184000	24.39955000
5.81977192	27.77184000	27.17673000
5.82477192	27.77184000	27.23777000
5.82977192	27.77184000	24.68947000
5.83477192	27.77184000	23.51451000
5.83977192	27.77184000	23.74340000
5.84477192	27.77184000	23.80444000
5.84977192	27.77184000	23.80444000
5.85477192	27.77184000	23.80444000
5.85977192	27.77184000	23.80444000
5.86477192	27.83288000	23.80444000
5.86977192	28.06177000	23.80444000
5.87477192	26.88680000	23.80444000
5.87977192	24.33851000	23.80444000
5.88477192	24.33851000	23.80444000
5.88977192	26.88680000	23.80444000
5.89477192	28.06177000	23.80444000
5.89977192	27.83288000	23.80444000
5.90477192	27.77184000	23.80444000
5.90977192	27.77184000	23.80444000
5.91477192	27.77184000	23.80444000
5.91977192	27.77184000	23.80444000
5.92477192	27.77184000	23.80444000
5.92977192	27.77184000	23.80444000
5.93477192	27.77184000	23.80444000
5.93977192	27.77184000	23.80444000
5.94477192	27.77184000	23.74340000
5.94977192	27.77184000	23.51451000
5.95477192	27.77184000	24.62844000
5.95977192	27.77184000	26.94784000
5.96477192	27.77184000	28.06177000
5.96977192	27.77184000	27.83288000
5.97477192	27.77184000	27.77184000
5.97977192	27.77184000	27.77184000
5.98477192	27.77184000	27.77184000
5.98977192	27.77184000	27.77184000
5.99477192	27.77184000	27.77184000
5.99977192	27.77184000	27.77184000
6.00477192	27.77184000	27.77184000
6.00977192	27.77184000	27.77184000
6.01477192	27.77184000	27.77184000
6.01977192	27.77184000	27.77184000
6.02477192	27.77184000	27.77184000
6.02977192	27.77184000	27.77184000
6.03477192	27.77184000	27.77184000
6.03977192	27.77184000	27.77184000
6.04477192	27.77184000	27.77184000
6.04977192	27.77184000	27.77184000
6.05477192	27.83288000	27.77184000
6.05977192	28.06177000	27.77184000
6.06477192	26.88680000	27.83288000
6.06977192	24.33851000	28.06177000
6.07477192	24.33851000	26.88680000
6.07977192	26.88680000	24.33851000
6.08477192	28.12280000	24.33851000
6.08977192	28.12280000	26.88680000
6.09477192	26.88680000	28.06177000
6.09977192	24.33851000	27.83288000
6.10477192	24.33851000	27.83288000
6.10977192	26.88680000	28.06177000
6.11477192	28.06177000	26.88680000
6.11977192	27.83288000	24.33851000
6.12477192	27.77184000	24.33851000
6.12977192	27.77184000	26.88680000
6.13477192	27.77184000	28.12280000
6.13977192	27.77184000	28.12280000
6.14477192	27.83288000	26.94784000
6.14977192	28.06177000	24.62844000
6.15477192	26.94784000	23.45347000
6.15977192	24.62844000	23.45347000
6.16477192	23.51451000	24.62844000
6.16977192	23.74340000	26.94784000
6.17477192	23.80444000	28.06177000
6.17977192	23.80444000	27.83288000
6.18477192	23.80444000	27.77184000
6.18977192	23.80444000	27.77184000
6.19477192	23.74340000	27.77184000
6.19977192	23.51451000	27.77184000
6.20477192	24.62844000	27.77184000
6.20977192	26.94784000	27.77184000
6.21477192	28.06177000	27.83288000
6.21977192	27.83288000	28.06177000
6.22477192	27.83288000	26.88680000
6.22977192	28.06177000	24.33851000
6.23477192	26.94784000	24.39955000
6.23977192	24.62844000	27.17673000
6.24477192	23.51451000	27.23777000
6.24977192	23.74340000	24.68947000
6.25477192	23.74340000	23.51451000
6.25977192	23.51451000	23.74340000
6.26477192	24.68947000	23.80444000
6.26977192	27.23777000	23.80444000
6.27477192	27.23777000	23.80444000
6.27977192	24.68947000	23.80444000
6.28477192	23.51451000	23.80444000
6.28977192	23.74340000	23.80444000
6.29477192	23.74340000	23.74340000
6.29977192	23.51451000	23.51451000
6.30477192	24.68947000	24.62844000
6.30977192	27.23777000	26.94784000
6.31477192	27.23777000	28.06177000
6.31977192	24.68947000	27.83288000
6.32477192	23.51451000	27.77184000
6.32977192	23.74340000	27.77184000
6.33477192	23.80444000	27.83288000
6.33977191	23.80444000	28.06177000
6.34477191	23.80444000	26.94784000
6.34977191	23.80444000	24.62844000
6.35477191	23.80444000	23.51451000
6.35977191	23.80444000	23.74340000
6.36477191	23.80444000	23.80444000
6.36977191	23.80444000	23.80444000
6.37477191	23.80444000	23.80444000
6.37977191	23.80444000	23.80444000
6.38477191	23.80444000	23.80444000
6.38977191	23.80444000	23.80444000
6.39477191	23.80444000	23.80444000
6.39977191	23.80444000	23.80444000
6.40477191	23.80444000	23.80444000
6.40977191	23.80444000	23.80444000
6.41477191	23.80444000	23.80444000
6.41977191	23.80444000	23.80444000
6.42477191	23.80444000	23.80444000
6.42977191	23.80444000	23.80444000
6.43477191	23.80444000	23.80444000
6.43977191	23.80444000	23.80444000
6.44477191	23.80444000	23.80444000
6.44977191	23.80444000	23.80444000
6.45477191	23.80444000	23.74340000
6.45977191	23.80444000	23.51451000
6.46477191	23.80444000	24.68947000
6.46977191	23.80444000	27.23777000
6.47477191	23.80444000	27.23777000
6.47977191	23.80444000	24.68947000
6.48477191	23.74340000	23.51451000
6.48977191	23.51451000	23.74340000
6.49477191	24.68947000	23.80444000
6.49977191	27.23777000	23.80444000
6.50477191	27.23777000	23.80444000
6.50977191	24.68947000	23.80444000
6.51477191	23.51451000	23.80444000
6.51977191	23.74340000	23.80444000
6.52477191	23.74340000	23.80444000
6.52977191	23.51451000	23.80444000
6.53477191	24.68947000	23.80444000
6.53977191	27.23777000	23.80444000
6.54477191	27.23777000	23.80444000
6.54977191	24.68947000	23.80444000
6.55477191	23.51451000	23.80444000
6.55977191	23.74340000	23.80444000
6.56477191	23.80444000	23.80444000
6.56977191	23.80444000	23.80444000
6.57477191	23.80444000	23.80444000
6.57977191	23.80444000	23.80444000
6.58477191	23.80444000	23.80444000
6.58977191	23.80444000	23.80444000
6.59477191	23.80444000	23.80444000
6.59977191	23.80444000	23.80444000
6.60477191	23.80444000	23.80444000
6.60977191	23.80444000	23.80444000
6.61477191	23.80444000	23.80444000
6.61977191	23.80444000	23.80444000
6.62477191	23.80444000	23.80444000
6.62977191	23.80444000	23.80444000
6.63477191	23.80444000	23.80444000
6.63977191	23.80444000	23.80444000
6.64477191	23.80444000	23.80444000
6.64977191	23.80444000	23.80444000
6.65477191	23.80444000	23.80444000
6.65977191	23.80444000	23.80444000
6.66477191	23.80444000	23.80444000
6.66977191	23.80444000	23.80444000
6.67477191	23.80444000	23.80444000
6.67977191	23.80444000	23.80444000
6.68477191	23.80444000	23.80444000
6.68977191	23.80444000	23.80444000
6.69477191	23.80444000	23.80444000
6.69977191	23.80444000	23.80444000
6.70477191	23.80444000	23.80444000
6.70977191	23.80444000	23.80444000
6.71477191	23.80444000	23.80444000
6.71977191	23.80444000	23.80444000
6.72477191	23.80444000	23.80444000
6.72977191	23.80444000	23.80444000
6.73477191	23.80444000	23.80444000
6.73977191	23.80444000	23.80444000
6.74477191	23.80444000	23.80444000
6.74977191	23.80444000	23.80444000
6.75477191	23.80444000	23.80444000
6.75977191	23.80444000	23.80444000
6.76477191	23.80444000	23.80444000
6.76977191	23.80444000	23.80444000
6.77477191	23.80444000	23.80444000
6.77977191	23.80444000	23.80444000
6.78477191	23.80444000	23.80444000
6.78977191	23.80444000	23.80444000
6.79477191	23.80444000	23.80444000
6.79977191	23.80444000	23.80444000
6.80477191	23.80444000	23.80444000
6.80977191	23.80444000	23.80444000
6.81477191	23.80444000	23.80444000
6.81977191	23.80444000	23.80444000
6.82477191	23.80444000	23.80444000
6.82977191	23.80444000	23.80444000
6.83477191	23.80444000	23.80444000
6.83977191	23.80444000	23.80444000
6.84477191	23.80444000	23.80444000
6.84977191	23.80444000	23.80444000
6.85477191	23.80444000	23.80444000
6.85977191	23.80444000	23.80444000
6.86477191	23.80444000	23.80444000
6.86977191	23.80444000	23.80444000
6.87477191	23.80444000	23.80444000
6.87977191	23.80444000	23.80444000
6.88477191	23.80444000	23.80444000
6.88977191	23.80444000	23.80444000
6.89477191	23.80444000	23.80444000
6.89977191	23.80444000	23.80444000
6.90477191	23.80444000	23.80444000
6.90977191	23.80444000	23.80444000
6.91477191	23.80444000	23.80444000
6.91977191	23.80444000	23.80444000
6.92477191	23.80444000	23.80444000
6.92977191	23.80444000	23.80444000
6.93477191	23.80444000	23.80444000
6.93977191	23.80444000	23.80444000
6.94477191	23.80444000	23.80444000
6.94977191	23.80444000	23.80444000
6.95477191	23.80444000	23.80444000
6.95977191	23.80444000	23.80444000
6.96477191	23.80444000	23.80444000
6.96977191	23.80444000	23.80444000
6.97477191	23.80444000	23.80444000
6.97977191	23.80444000	23.80444000
6.98477191	23.80444000	23.80444000
6.98977191	23.80444000	23.80444000
6.99477191	23.80444000	23.80444000
6.99977191	23.80444000	23.80444000
7.00477191	23.80444000	23.74340000
7.00977191	23.80444000	23.51451000
7.01477191	23.80444000	24.62844000
7.01977191	23.80444000	26.94784000
7.02477191	23.80444000	28.06177000
7.02977191	23.80444000	27.83288000
7.03477191	23.80444000	27.77184000
7.03977191	23.80444000	27.77184000
7.04477191	23.80444000	27.77184000
7.04977191	23.80444000	27.77184000
7.05477191	23.80444000	27.77184000
7.05977191	23.80444000	27.77184000
7.06477191	23.80444000	27.77184000
7.06977191	23.80444000	27.77184000
7.07477191	23.80444000	27.83288000
7.07977191	23.80444000	28.06177000
7.08477191	23.80444000	26.88680000
7.08977191	23.80444000	24.33851000
7.09477191	23.80444000	24.39955000
7.09977191	23.80444000	27.17673000
7.10477191	23.80444000	27.17673000
7.10977191	23.80444000	24.39955000
7.11477191	23.80444000	24.33851000
7.11977191	23.80444000	26.88680000
7.12477191	23.80444000	28.06177000
7.12977191	23.80444000	27.83288000
7.13477191	23.80444000	27.83288000
7.13977191	23.80444000	28.06177000
7.14477191	23.80444000	26.94784000
7.14977191	23.80444000	24.62844000
7.15477191	23.80444000	23.51451000
7.15977191	23.80444000	23.74340000
7.16477191	23.80444000	23.80444000
7.16977191	23.80444000	23.80444000
7.17477191	23.80444000	23.80444000
7.17977191	23.80444000	23.80444000
7.18477191	23.80444000	23.80444000
7.18977191	23.80444000	23.80444000
7.19477191	23.80444000	23.80444000
7.19977191	23.80444000	23.80444000
7.20477191	23.80444000	23.80444000
7.20977191	23.80444000	23.80444000
7.21477191	23.80444000	23.80444000
7.21977191	23.80444000	23.80444000
7.22477191	23.80444000	23.80444000
7.22977191	23.80444000	23.80444000
7.23477191	23.80444000	23.80444000
7.23977191	23.80444000	23.80444000
7.24477191	23.80444000	23.80444000
7.24977191	23.80444000	23.80444000
7.25477191	23.80444000	23.80444000
7.25977191	23.80444000	23.80444000
7.26477191	23.80444000	23.80444000
7.26977191	23.80444000	23.80444000
7.27477191	23.80444000	23.80444000
7.27977191	23.80444000	23.80444000
7.28477191	23.80444000	23.80444000
7.28977191	23.80444000	23.80444000
7.29477191	23.80444000	23.80444000
7.29977191	23.80444000	23.80444000
7.30477191	23.80444000	23.80444000
7.30977191	23.80444000	23.80444000
7.31477191	23.80444000	23.80444000
7.31977191	23.80444000	23.80444000
7.32477191	23.80444000	23.80444000
7.32977191	23.80444000	23.80444000
7.33477191	23.80444000	23.80444000
7.33977191	23.80444000	23.80444000
7.34477191	23.80444000	23.80444000
7.34977191	23.80444000	23.80444000
7.35477191	23.80444000	23.80444000
7.35977191	23.80444000	23.80444000
7.36477191	23.80444000	23.80444000
7.36977191	23.80444000	23.80444000
7.37477191	23.80444000	23.80444000
7.37977191	23.80444000	23.80444000
7.38477191	23.80444000	23.80444000
7.38977191	23.80444000	23.80444000
7.39477191	23.80444000	23.80444000
7.39977191	23.80444000	23.80444000
7.40477191	23.80444000	23.80444000
7.40977191	23.80444000	23.80444000
7.41477191	23.80444000	23.80444000
7.41977191	23.80444000	23.80444000
7.42477191	23.80444000	23.80444000
7.42977191	23.80444000	23.80444000
7.43477191	23.80444000	23.80444000
7.43977191	23.80444000	23.80444000
7.44477191	23.80444000	23.80444000
7.44977191	23.80444000	23.80444000
7.45477191	23.80444000	23.80444000
7.45977191	23.80444000	23.80444000
7.46477191	23.80444000	23.80444000
7.46977191	23.80444000	23.80444000
7.47477191	23.80444000	23.80444000
7.47977191	23.80444000	23.80444000
7.48477191	23.86547000	23.86547000
7.48977191	24.09436000	24.09436000
7.49477191	22.91940000	22.91940000
7.49977191	20.37111000	20.37111000
7.50477191	20.37111000	20.37111000
7.50977191	22.91940000	22.91940000
7.51477191	24.09436000	24.09436000
7.51977191	23.86547000	23.86547000
7.52477191	23.80444000	23.80444000
7.52977191	23.80444000	23.80444000
7.53477191	23.80444000	23.80444000
7.53977191	23.80444000	23.80444000
7.54477191	23.80444000	23.80444000
7.54977191	23.80444000	23.80444000
7.55477191	23.80444000	23.80444000
7.55977191	23.80444000	23.80444000
7.56477191	23.80444000	23.80444000
7.56977191	23.80444000	23.80444000
7.57477191	23.80444000	23.80444000
7.57977191	23.80444000	23.80444000
7.58477191	23.80444000	23.80444000
7.58977191	23.80444000	23.80444000
7.59477191	23.80444000	23.86547000
7.59977191	23.80444000	24.09436000
7.60477191	23.80444000	22.91940000
7.60977191	23.80444000	20.37111000
7.61477191	23.80444000	20.37111000
7.61977191	23.80444000	22.91940000
7.62477191	23.80444000	24.09436000
7.62977191	23.80444000	23.86547000
7.63477191	23.80444000	23.80444000
7.63977191	23.80444000	23.80444000
7.64477191	23.86547000	23.80444000
7.64977191	24.09436000	23.80444000
7.65477191	22.91940000	23.80444000
7.65977191	20.37111000	23.80444000
7.66477191	20.37111000	23.80444000
7.66977191	22.91940000	23.80444000
7.67477191	24.09436000	23.80444000
7.67977191	23.86547000	23.80444000
7.68477191	23.80444000	23.80444000
7.68977191	23.80444000	23.80444000
7.69477191	23.80444000	23.80444000
7.69977191	23.80444000	23.80444000
7.70477191	23.80444000	23.80444000
7.70977191	23.80444000	23.80444000
7.71477191	23.80444000	23.80444000
7.71977191	23.80444000	23.80444000
7.72477191	23.80444000	23.80444000
7.72977191	23.80444000	23.80444000
7.73477191	23.80444000	23.80444000
7.73977191	23.80444000	23.80444000
7.74477191	23.86547000	23.80444000
7.74977191	24.09436000	23.80444000
7.75477191	22.91940000	23.80444000
7.75977191	20.37111000	23.80444000
7.76477191	20.43214000	23.80444000
7.76977191	23.20932000	23.80444000
7.77477191	23.27036000	23.80444000
7.77977191	20.72207000	23.80444000
7.78477191	19.48607000	23.80444000
7.78977191	19.48607000	23.80444000
7.79477191	20.66103000	23.80444000
7.79977191	22.98043000	23.80444000
7.80477191	24.09436000	23.80444000
7.80977191	23.86547000	23.80444000
7.81477191	23.80444000	23.80444000
7.81977191	23.80444000	23.80444000
7.82477191	23.80444000	23.80444000
7.82977191	23.80444000	23.80444000
7.83477191	23.80444000	23.80444000
7.83977191	23.80444000	23.80444000
7.84477191	23.86547000	23.80444000
7.84977191	24.09436000	23.80444000
7.85477191	22.91940000	23.80444000
7.85977191	20.37111000	23.80444000
7.86477191	20.37111000	23.80444000
7.86977191	22.91940000	23.80444000
7.87477191	24.09436000	23.80444000
7.87977191	23.86547000	23.80444000
7.88477191	23.80444000	23.80444000
7.88977191	23.80444000	23.80444000
7.89477191	23.86547000	23.80444000
7.89977191	24.09436000	23.80444000
7.90477191	22.91940000	23.80444000
7.90977191	20.37111000	23.80444000
7.91477191	20.37111000	23.80444000
7.91977191	22.91940000	23.80444000
7.92477191	24.09436000	23.80444000
7.92977191	23.86547000	23.80444000
7.93477191	23.86547000	23.80444000
7.93977191	24.09436000	23.80444000
7.94477191	22.91940000	23.80444000
7.94977191	20.37111000	23.80444000
7.95477191	20.37111000	23.80444000
7.95977191	22.91940000	23.80444000
7.96477191	24.15540000	23.80444000
7.96977191	24.15540000	23.80444000
7.97477191	22.98043000	23.80444000
7.97977191	20.66103000	23.80444000
7.98477191	19.54710000	23.80444000
7.98977190	19.77599000	23.80444000
7.99477190	19.77599000	23.80444000
7.99977190	19.54710000	23.80444000
8.00477190	20.66103000	23.80444000
8.00977190	22.98043000	23.80444000
8.01477190	24.15540000	23.80444000
8.01977190	24.15540000	23.80444000
8.02477190	22.91940000	23.86547000
8.02977190	20.37111000	24.09436000
8.03477190	20.37111000	22.98043000
8.03977190	22.91940000	20.66103000
8.04477190	24.09436000	19.48607000
8.04977190	23.86547000	19.48607000
8.05477190	23.86547000	20.66103000
8.05977190	24.09436000	22.98043000
8.06477190	22.98043000	24.15540000
8.06977190	20.66103000	24.15540000
8.07477190	19.54710000	22.91940000
8.07977190	19.77599000	20.37111000
8.08477190	19.77599000	20.43214000
8.08977190	19.54710000	23.20932000
8.09477190	20.66103000	23.20932000
8.09977190	22.98043000	20.43214000
8.10477190	24.15540000	20.37111000
8.10977190	24.15540000	22.91940000
8.11477190	22.91940000	24.09436000
8.11977190	20.37111000	23.86547000
8.12477190	20.43214000	23.80444000
8.12977190	23.20932000	23.80444000
8.13477190	23.27036000	23.80444000
8.13977190	20.72207000	23.80444000
8.14477190	19.54710000	23.80444000
8.14977190	19.77599000	23.80444000
8.15477190	19.83703000	23.80444000
8.15977190	19.83703000	23.80444000
8.16477190	19.77599000	23.80444000
8.16977190	19.54710000	23.80444000
8.17477190	20.72207000	23.80444000
8.17977190	23.27036000	23.80444000
8.18477190	23.27036000	23.80444000
8.18977190	20.72207000	23.80444000
8.19477190	19.54710000	23.80444000
8.19977190	19.77599000	23.80444000
8.20477190	19.83703000	23.80444000
8.20977190	19.83703000	23.80444000
8.21477190	19.83703000	23.80444000
8.21977190	19.83703000	23.80444000
8.22477190	19.83703000	23.80444000
8.22977190	19.83703000	23.80444000
8.23477190	19.83703000	23.80444000
8.23977190	19.83703000	23.80444000
8.24477190	19.83703000	23.80444000
8.24977190	19.83703000	23.80444000
8.25477190	19.83703000	23.80444000
8.25977190	19.83703000	23.80444000
8.26477190	19.83703000	23.80444000
8.26977190	19.83703000	23.80444000
8.27477190	19.77599000	23.80444000
8.27977190	19.54710000	23.80444000
8.28477190	20.72207000	23.80444000
8.28977190	23.27036000	23.80444000
8.29477190	23.27036000	23.80444000
8.29977190	20.72207000	23.80444000
8.30477190	19.54710000	23.80444000
8.30977190	19.77599000	23.80444000
8.31477190	19.83703000	23.80444000
8.31977190	19.83703000	23.80444000
8.32477190	19.83703000	23.80444000
8.32977190	19.83703000	23.80444000
8.33477190	19.83703000	23.86547000
8.33977190	19.83703000	24.09436000
8.34477190	19.83703000	22.98043000
8.34977190	19.83703000	20.66103000
8.35477190	19.83703000	19.54710000
8.35977190	19.83703000	19.77599000
8.36477190	19.77599000	19.83703000
8.36977190	19.54710000	19.83703000
8.37477190	20.72207000	19.83703000
8.37977190	23.27036000	19.83703000
8.38477190	23.27036000	19.83703000
8.38977190	20.72207000	19.83703000
8.39477190	19.54710000	19.77599000
8.39977190	19.77599000	19.54710000
8.40477190	19.83703000	20.72207000
8.40977190	19.83703000	23.27036000
8.41477190	19.83703000	23.27036000
8.41977190	19.83703000	20.72207000
8.42477190	19.83703000	19.54710000
8.42977190	19.83703000	19.77599000
8.43477190	19.83703000	19.77599000
8.43977190	19.83703000	19.54710000
8.44477190	19.83703000	20.66103000
8.44977190	19.83703000	22.98043000
8.45477190	19.83703000	24.09436000
8.45977190	19.83703000	23.86547000
8.46477190	19.83703000	23.86547000
8.46977190	19.83703000	24.09436000
8.47477190	19.83703000	22.91940000
8.47977190	19.83703000	20.37111000
8.48477190	19.83703000	20.37111000
8.48977190	19.83703000	22.91940000
8.49477190	19.83703000	24.09436000
8.49977190	19.83703000	23.86547000
8.50477190	19.83703000	23.80444000
8.50977190	19.83703000	23.80444000
8.51477190	19.77599000	23.80444000
8.51977190	19.54710000	23.80444000
8.52477190	20.72207000	23.80444000
8.52977190	23.27036000	23.80444000
8.53477190	23.27036000	23.80444000
8.53977190	20.72207000	23.80444000
8.54477190	19.54710000	23.80444000
8.54977190	19.77599000	23.80444000
8.55477190	19.83703000	23.80444000
8.55977190	19.83703000	23.80444000
8.56477190	19.83703000	23.80444000
8.56977190	19.83703000	23.80444000
8.57477190	19.83703000	23.80444000
8.57977190	19.83703000	23.80444000
8.58477190	19.83703000	23.80444000
8.58977190	19.83703000	23.80444000
8.59477190	19.83703000	23.80444000
8.59977190	19.83703000	23.80444000
8.60477190	19.83703000	23.80444000
8.60977190	19.83703000	23.80444000
8.61477190	19.83703000	23.80444000
8.61977190	19.83703000	23.80444000
8.62477190	19.83703000	23.80444000
8.62977190	19.83703000	23.80444000
8.63477190	19.77599000	23.80444000
8.63977190	19.54710000	23.80444000
8.64477190	20.72207000	23.86547000
8.64977190	23.27036000	24.09436000
8.65477190	23.27036000	22.98043000
8.65977190	20.72207000	20.66103000
8.66477190	19.54710000	19.54710000
8.66977190	19.77599000	19.77599000
8.67477190	19.83703000	19.83703000
8.67977190	19.83703000	19.83703000
8.68477190	19.77599000	19.83703000
8.68977190	19.54710000	19.83703000
8.69477190	20.72207000	19.83703000
8.69977190	23.27036000	19.83703000
8.70477190	23.27036000	19.83703000
8.70977190	20.72207000	19.83703000
8.71477190	19.54710000	19.83703000
8.71977190	19.77599000	19.83703000
8.72477190	19.83703000	19.77599000
8.72977190	19.83703000	19.54710000
8.73477190	19.77599000	20.66103000
8.73977190	19.54710000	22.98043000
8.74477190	20.72207000	24.09436000
8.74977190	23.27036000	23.86547000
8.75477190	23.27036000	23.80444000
8.75977190	20.72207000	23.80444000
8.76477190	19.54710000	23.80444000
8.76977190	19.77599000	23.80444000
8.77477190	19.83703000	23.80444000
8.77977190	19.83703000	23.80444000
8.78477190	19.83703000	23.80444000
8.78977190	19.83703000	23.80444000
8.79477190	19.83703000	23.80444000
8.79977190	19.83703000	23.80444000
8.80477190	19.83703000	23.80444000
8.80977190	19.83703000	23.80444000
8.81477190	19.83703000	23.80444000
8.81977190	19.83703000	23.80444000
8.82477190	19.83703000	23.80444000
8.82977190	19.83703000	23.80444000
8.83477190	19.83703000	23.80444000
8.83977190	19.83703000	23.80444000
8.84477190	19.83703000	23.80444000
8.84977190	19.83703000	23.80444000
8.85477190	19.83703000	23.80444000
8.85977190	19.83703000	23.80444000
8.86477190	19.83703000	23.80444000
8.86977190	19.83703000	23.80444000
8.87477190	19.83703000	23.80444000
8.87977190	19.83703000	23.80444000
8.88477190	19.83703000	23.86547000
8.88977190	19.83703000	24.09436000
8.89477190	19.83703000	22.98043000
8.89977190	19.83703000	20.66103000
8.90477190	19.83703000	19.54710000
8.90977190	19.83703000	19.77599000
8.91477190	19.83703000	19.83703000
8.91977190	19.83703000	19.83703000
8.92477190	19.83703000	19.83703000
8.92977190	19.83703000	19.83703000
8.93477190	19.83703000	19.83703000
8.93977190	19.83703000	19.83703000
8.94477190	19.83703000	19.83703000
8.94977190	19.83703000	19.83703000
8.95477190	19.83703000	19.83703000
8.95977190	19.83703000	19.83703000
8.96477190	19.83703000	19.83703000
8.96977190	19.83703000	19.83703000
8.97477190	19.83703000	19.83703000
8.97977190	19.83703000	19.83703000
8.98477190	19.83703000	19.83703000
8.98977190	19.83703000	19.83703000
8.99477190	19.83703000	19.83703000
8.99977190	19.83703000	19.83703000
9.00477190	19.83703000	19.83703000
9.00977190	19.83703000	19.83703000
9.01477190	19.83703000	19.83703000
9.01977190	19.83703000	19.83703000
9.02477190	19.83703000	19.83703000
9.02977190	19.83703000	19.83703000
