Time	Channel A	Channel B
(us)	(mV)	(mV)

-1.01156801	11.90222000	15.86962000
-1.00656801	11.90222000	15.86962000
-1.00156801	11.90222000	15.86962000
-0.99656801	11.90222000	15.86962000
-0.99156801	11.84118000	15.86962000
-0.98656801	11.61229000	15.86962000
-0.98156801	12.78725000	15.86962000
-0.97656801	15.33555000	15.86962000
-0.97156801	15.33555000	15.86962000
-0.96656801	12.78725000	15.86962000
-0.96156801	11.55125000	15.86962000
-0.95656801	11.55125000	15.86962000
-0.95156801	12.78725000	15.86962000
-0.94656801	15.33555000	15.86962000
-0.94156801	15.33555000	15.86962000
-0.93656801	12.78725000	15.86962000
-0.93156801	11.61229000	15.86962000
-0.92656801	11.84118000	15.86962000
-0.92156801	11.90222000	15.86962000
-0.91656801	11.90222000	15.86962000
-0.91156801	11.90222000	15.86962000
-0.90656801	11.90222000	15.86962000
-0.90156801	11.90222000	15.86962000
-0.89656801	11.90222000	15.86962000
-0.89156801	11.90222000	15.86962000
-0.88656802	11.90222000	15.86962000
-0.88156802	11.90222000	15.86962000
-0.87656802	11.90222000	15.86962000
-0.87156802	11.90222000	15.80859000
-0.86656802	11.90222000	15.57970000
-0.86156802	11.90222000	16.69362000
-0.85656802	11.90222000	19.01303000
-0.85156802	11.90222000	20.18799000
-0.84656802	11.90222000	20.18799000
-0.84156802	11.90222000	18.95199000
-0.83656802	11.90222000	16.40370000
-0.83156802	11.90222000	16.46474000
-0.82656802	11.90222000	19.24192000
-0.82156802	11.90222000	19.30296000
-0.81656802	11.90222000	16.75466000
-0.81156802	11.90222000	15.57970000
-0.80656802	11.90222000	15.80859000
-0.80156802	11.90222000	15.86962000
-0.79656802	11.90222000	15.86962000
-0.79156802	11.90222000	15.86962000
-0.78656802	11.90222000	15.86962000
-0.78156802	11.90222000	15.86962000
-0.77656802	11.90222000	15.86962000
-0.77156802	11.90222000	15.86962000
-0.76656802	11.90222000	15.86962000
-0.76156802	11.90222000	15.86962000
-0.75656802	11.90222000	15.86962000
-0.75156802	11.90222000	15.86962000
-0.74656802	11.90222000	15.86962000
-0.74156802	11.90222000	15.86962000
-0.73656802	11.90222000	15.86962000
-0.73156802	11.90222000	15.86962000
-0.72656802	11.90222000	15.86962000
-0.72156802	11.90222000	15.86962000
-0.71656802	11.90222000	15.86962000
-0.71156802	11.90222000	15.86962000
-0.70656802	11.90222000	15.86962000
-0.70156802	11.90222000	15.86962000
-0.69656802	11.90222000	15.86962000
-0.69156802	11.90222000	15.86962000
-0.68656802	11.90222000	15.86962000
-0.68156802	11.90222000	15.86962000
-0.67656802	11.90222000	15.86962000
-0.67156802	11.90222000	15.86962000
-0.66656802	11.90222000	15.86962000
-0.66156802	11.90222000	15.86962000
-0.65656802	11.90222000	15.86962000
-0.65156802	11.90222000	15.86962000
-0.64656802	11.90222000	15.86962000
-0.64156802	11.90222000	15.86962000
-0.63656802	11.90222000	15.86962000
-0.63156802	11.90222000	15.86962000
-0.62656802	11.90222000	15.86962000
-0.62156802	11.84118000	15.86962000
-0.61656802	11.61229000	15.86962000
-0.61156802	12.78725000	15.86962000
-0.60656802	15.33555000	15.86962000
-0.60156802	15.33555000	15.86962000
-0.59656802	12.78725000	15.86962000
-0.59156802	11.61229000	15.86962000
-0.58656802	11.84118000	15.86962000
-0.58156802	11.90222000	15.86962000
-0.57656802	11.90222000	15.86962000
-0.57156802	11.90222000	15.80859000
-0.56656802	11.90222000	15.57970000
-0.56156802	11.90222000	16.75466000
-0.55656802	11.90222000	19.30296000
-0.55156802	11.90222000	19.30296000
-0.54656802	11.90222000	16.75466000
-0.54156802	11.90222000	15.51866000
-0.53656802	11.90222000	15.51866000
-0.53156802	11.90222000	16.75466000
-0.52656802	11.90222000	19.30296000
-0.52156802	11.84118000	19.30296000
-0.51656802	11.61229000	16.75466000
-0.51156802	12.78725000	15.57970000
-0.50656802	15.33555000	15.80859000
-0.50156802	15.33555000	15.86962000
-0.49656802	12.78725000	15.86962000
-0.49156802	11.61229000	15.86962000
-0.48656802	11.84118000	15.86962000
-0.48156802	11.90222000	15.80859000
-0.47656802	11.90222000	15.57970000
-0.47156802	11.90222000	16.75466000
-0.46656802	11.90222000	19.30296000
-0.46156802	11.90222000	19.30296000
-0.45656802	11.90222000	16.75466000
-0.45156802	11.90222000	15.51866000
-0.44656802	11.90222000	15.51866000
-0.44156802	11.84118000	16.69362000
-0.43656802	11.61229000	19.01303000
-0.43156802	12.78725000	20.18799000
-0.42656802	15.33555000	20.18799000
-0.42156802	15.33555000	19.01303000
-0.41656802	12.78725000	16.69362000
-0.41156802	11.61229000	15.57970000
-0.40656802	11.84118000	15.80859000
-0.40156802	11.90222000	15.86962000
-0.39656802	11.90222000	15.86962000
-0.39156802	11.90222000	15.86962000
-0.38656802	11.90222000	15.86962000
-0.38156802	11.90222000	15.86962000
-0.37656802	11.90222000	15.86962000
-0.37156802	11.90222000	15.86962000
-0.36656802	11.90222000	15.86962000
-0.36156802	11.90222000	15.86962000
-0.35656802	11.90222000	15.86962000
-0.35156802	11.90222000	15.86962000
-0.34656802	11.90222000	15.86962000
-0.34156802	11.90222000	15.86962000
-0.33656802	11.90222000	15.86962000
-0.33156802	11.90222000	15.86962000
-0.32656802	11.90222000	15.86962000
-0.32156802	11.90222000	15.86962000
-0.31656802	11.90222000	15.86962000
-0.31156802	11.90222000	15.86962000
-0.30656802	11.90222000	15.86962000
-0.30156802	11.90222000	15.80859000
-0.29656802	11.90222000	15.57970000
-0.29156802	11.90222000	16.69362000
-0.28656802	11.90222000	19.01303000
-0.28156802	11.90222000	20.12696000
-0.27656802	11.90222000	19.89807000
-0.27156802	11.90222000	19.83703000
-0.26656802	11.90222000	19.83703000
-0.26156802	11.90222000	19.83703000
-0.25656802	11.90222000	19.83703000
-0.25156802	11.90222000	19.83703000
-0.24656802	11.90222000	19.83703000
-0.24156802	11.90222000	19.83703000
-0.23656802	11.90222000	19.83703000
-0.23156802	11.84118000	19.83703000
-0.22656802	11.61229000	19.83703000
-0.22156802	12.78725000	19.83703000
-0.21656802	15.33555000	19.83703000
-0.21156802	15.33555000	19.83703000
-0.20656802	12.78725000	19.83703000
-0.20156802	11.61229000	19.83703000
-0.19656802	11.84118000	19.83703000
-0.19156802	11.90222000	19.83703000
-0.18656802	11.90222000	19.83703000
-0.18156802	11.90222000	19.83703000
-0.17656802	11.90222000	19.83703000
-0.17156802	11.90222000	19.83703000
-0.16656802	11.90222000	19.83703000
-0.16156802	11.90222000	19.83703000
-0.15656802	11.90222000	19.83703000
-0.15156802	11.90222000	19.83703000
-0.14656802	11.90222000	19.83703000
-0.14156802	11.84118000	19.89807000
-0.13656802	11.61229000	20.12696000
-0.13156802	12.78725000	19.01303000
-0.12656802	15.33555000	16.69362000
-0.12156802	15.33555000	15.57970000
-0.11656802	12.78725000	15.80859000
-0.11156802	11.55125000	15.86962000
-0.10656802	11.55125000	15.86962000
-0.10156802	12.66518000	15.86962000
-0.09656802	14.75570000	15.86962000
-0.09156802	16.87673000	15.93066000
-0.08656802	18.47896000	16.15955000
-0.08156802	21.66814000	15.04562000
-0.07656802	25.58977000	12.72622000
-0.07156802	29.89288000	11.61229000
-0.06656802	33.58562000	11.84118000
-0.06156802	37.76665000	11.96325000
-0.05656802	41.23050000	12.19214000
-0.05156802	46.52546000	11.07822000
-0.04656802	52.30872000	8.75881200
-0.04156802	58.71761000	7.64488600
-0.03656802	64.27197000	7.87377500
-0.03156802	70.68087000	7.99584900
-0.02656802	76.47938000	8.22473800
-0.02156802	81.77434000	7.11081200
-0.01656802	85.23819000	4.79140600
-0.01156802	89.35819000	3.67748000
-0.00656802	92.82204000	3.90636900
-0.00156802	98.17804000	3.96740600
0.00343198	104.19020000	3.96740600
0.00843198	109.48510000	3.96740600
0.01343198	112.72010000	3.96740600
0.01843198	118.01510000	3.96740600
0.02343198	124.02720000	3.96740600
0.02843198	129.32220000	3.96740600
0.03343198	132.55710000	3.96740600
0.03843198	137.85210000	3.96740600
0.04343198	143.87950000	3.96740600
0.04843198	149.23550000	3.90636900
0.05343198	152.69940000	3.67748000
0.05843198	156.88040000	4.79140600
0.06343198	160.57310000	7.11081200
0.06843198	164.81520000	8.22473800
0.07343198	168.50790000	7.99584900
0.07843198	172.75000000	7.99584900
0.08343198	176.44270000	8.22473800
0.08843198	180.68480000	7.04977500
0.09343198	184.37760000	4.50148000
0.09843198	188.61960000	4.50148000
0.10343198	192.31240000	7.04977500
0.10843198	196.61550000	8.28577500
0.11343198	200.53710000	8.28577500
0.11843198	203.66530000	7.11081200
0.12343198	205.03860000	4.79140600
0.12843198	208.22780000	3.67748000
0.13343198	212.39360000	3.90636900
0.13843198	215.64380000	3.96740600
0.14343198	217.24600000	3.96740600
0.14843198	219.30600000	3.96740600
0.15343198	221.16760000	3.96740600
0.15843198	223.33440000	3.90636900
0.16343198	225.42500000	3.67748000
0.16843198	226.47780000	4.79140600
0.17343198	226.24890000	7.11081200
0.17843198	226.24890000	8.22473800
0.18343198	226.47780000	7.99584900
0.18843198	225.36390000	7.87377500
0.19343198	223.04450000	7.64488600
0.19843198	222.05270000	8.75881200
0.20343198	222.73930000	11.07822000
0.20843198	220.63360000	12.19214000
0.21343198	216.23890000	11.96325000
0.21843198	212.98870000	11.84118000
0.22343198	211.60010000	11.61229000
0.22843198	208.41090000	12.78725000
0.23343198	204.26040000	15.33555000
0.23843198	201.07120000	15.27451000
0.24343198	199.69790000	12.49733000
0.24843198	196.46290000	12.43629000
0.25343198	192.05300000	14.98459000
0.25843198	189.94720000	16.22059000
0.26343198	190.63390000	16.22059000
0.26843198	189.70300000	15.04562000
0.27343198	187.61250000	12.72622000
0.27843198	185.44570000	11.61229000
0.28343198	183.58410000	11.84118000
0.28843198	181.47830000	11.90222000
0.29343198	179.61670000	11.90222000
0.29843198	177.51090000	11.90222000
0.30343198	175.64930000	11.90222000
0.30843198	173.48250000	11.90222000
0.31343198	171.39190000	11.90222000
0.31843198	170.40010000	11.90222000
0.32343198	170.85790000	11.90222000
0.32843198	169.86600000	11.90222000
0.33343198	167.77550000	11.90222000
0.33843198	165.54760000	11.90222000
0.34343198	163.45710000	11.90222000
0.34843198	162.40430000	11.90222000
0.35343198	162.63310000	11.90222000
0.35843198	162.75520000	11.96325000
0.36343198	162.98410000	12.19214000
0.36843198	161.87020000	11.07822000
0.37343198	159.55080000	8.75881200
0.37843198	158.43680000	7.58384900
0.38343198	158.66570000	7.58384900
0.38843198	158.72680000	8.75881200
0.39343198	158.72680000	11.07822000
0.39843198	158.72680000	12.19214000
0.40343198	158.72680000	11.96325000
0.40843198	158.78780000	11.90222000
0.41343198	159.01670000	11.90222000
0.41843198	157.90280000	11.90222000
0.42343198	155.58340000	11.90222000
0.42843198	154.46940000	11.90222000
0.43343198	154.69830000	11.90222000
0.43843198	154.75940000	11.90222000
0.44343198	154.75940000	11.90222000
0.44843198	154.75940000	11.84118000
0.45343198	154.75940000	11.61229000
0.45843198	154.75940000	12.72622000
0.46343198	154.75940000	15.04562000
0.46843198	154.82040000	16.22059000
0.47343198	155.04930000	16.22059000
0.47843198	153.93530000	15.04562000
0.48343198	151.61590000	12.72622000
0.48843198	150.50200000	11.61229000
0.49343198	150.73090000	11.84118000
0.49843198	150.79190000	11.90222000
0.50343198	150.79190000	11.90222000
0.50843198	150.79190000	11.90222000
0.51343198	150.79190000	11.90222000
0.51843198	150.79190000	11.90222000
0.52343198	150.79190000	11.90222000
0.52843198	150.85300000	11.84118000
0.53343198	151.08190000	11.61229000
0.53843198	149.96790000	12.78725000
0.54343198	147.64850000	15.33555000
0.54843198	146.53460000	15.27451000
0.55343198	146.76350000	12.49733000
0.55843198	146.82450000	12.43629000
0.56343198	146.82450000	14.98459000
0.56843198	146.82450000	16.15955000
0.57343198	146.82450000	15.93066000
0.57843198	146.88560000	15.86962000
0.58343198	147.11450000	15.86962000
0.58843198	146.00050000	15.86962000
0.59343198	143.68110000	15.86962000
0.59843198	142.56720000	15.86962000
0.60343198	142.79610000	15.86962000
0.60843198	142.85710000	15.86962000
0.61343198	142.85710000	15.86962000
0.61843198	142.85710000	15.86962000
0.62343198	142.85710000	15.86962000
0.62843198	142.85710000	15.86962000
0.63343198	142.85710000	15.86962000
0.63843198	142.91820000	15.86962000
0.64343198	143.14710000	15.86962000
0.64843198	142.03310000	15.86962000
0.65343198	139.69850000	15.86962000
0.65843198	138.58450000	15.86962000
0.66343198	138.81340000	15.86962000
0.66843198	138.87450000	15.86962000
0.67343198	138.87450000	15.86962000
0.67843198	138.87450000	15.93066000
0.68343198	138.87450000	16.15955000
0.68843198	138.87450000	15.04562000
0.69343198	138.87450000	12.72622000
0.69843198	138.93550000	11.61229000
0.70343198	139.16440000	11.84118000
0.70843198	138.05050000	11.90222000
0.71343198	135.73110000	11.90222000
0.71843198	134.61710000	11.90222000
0.72343198	134.84600000	11.90222000
0.72843198	134.90710000	11.90222000
0.73343198	134.90710000	11.90222000
0.73843198	134.90710000	11.90222000
0.74343198	134.90710000	11.90222000
0.74843198	134.90710000	11.90222000
0.75343198	134.90710000	11.90222000
0.75843198	134.90710000	11.84118000
0.76343197	134.90710000	11.61229000
0.76843197	134.96810000	12.78725000
0.77343197	135.19700000	15.33555000
0.77843197	134.08310000	15.27451000
0.78343197	131.76370000	12.49733000
0.78843197	130.64970000	12.49733000
0.79343197	130.87860000	15.27451000
0.79843197	130.93970000	15.33555000
0.80343197	130.93970000	12.78725000
0.80843197	130.93970000	11.55125000
0.81343197	130.93970000	11.55125000
0.81843197	131.00070000	12.78725000
0.82343197	131.22960000	15.33555000
0.82843197	130.11560000	15.33555000
0.83343197	127.79630000	12.78725000
0.83843197	126.68230000	11.61229000
0.84343197	126.91120000	11.84118000
0.84843197	126.97230000	11.84118000
0.85343197	126.97230000	11.61229000
0.85843197	126.97230000	12.72622000
0.86343197	126.97230000	15.04562000
0.86843197	126.97230000	16.15955000
0.87343197	126.97230000	15.93066000
0.87843197	126.97230000	15.86962000
0.88343197	126.97230000	15.86962000
0.88843197	127.03330000	15.86962000
0.89343197	127.26220000	15.86962000
0.89843197	126.14820000	15.86962000
0.90343197	123.82880000	15.86962000
0.90843197	122.71490000	15.86962000
0.91343197	122.94380000	15.86962000
0.91843197	123.00480000	15.86962000
0.92343197	123.00480000	15.86962000
0.92843197	123.00480000	15.86962000
0.93343197	123.00480000	15.86962000
0.93843197	123.00480000	15.86962000
0.94343197	123.00480000	15.86962000
0.94843197	123.06590000	15.86962000
0.95343197	123.29480000	15.86962000
0.95843197	122.18080000	15.86962000
0.96343197	119.86140000	15.86962000
0.96843197	118.74750000	15.86962000
0.97343197	118.97640000	15.86962000
0.97843197	119.03740000	15.86962000
0.98343197	119.03740000	15.86962000
0.98843197	119.03740000	15.86962000
0.99343197	119.03740000	15.86962000
0.99843197	119.03740000	15.86962000
1.00343197	119.03740000	15.86962000
1.00843197	119.03740000	15.86962000
1.01343197	119.03740000	15.86962000
1.01843197	119.03740000	15.86962000
1.02343197	119.03740000	15.86962000
1.02843197	119.03740000	15.86962000
1.03343197	119.03740000	15.86962000
1.03843197	119.09850000	15.86962000
1.04343197	119.32740000	15.86962000
1.04843197	118.21340000	15.86962000
1.05343197	115.89400000	15.86962000
1.05843197	114.78010000	15.86962000
1.06343197	115.00900000	15.86962000
1.06843197	115.07000000	15.86962000
1.07343197	115.07000000	15.86962000
1.07843197	115.07000000	15.86962000
1.08343197	115.07000000	15.86962000
1.08843197	115.07000000	15.86962000
1.09343197	115.07000000	15.86962000
1.09843197	115.07000000	15.86962000
1.10343197	115.07000000	15.86962000
1.10843197	115.13110000	15.86962000
1.11343197	115.36000000	15.86962000
1.11843197	114.24600000	15.86962000
1.12343197	111.92660000	15.86962000
1.12843197	110.81270000	15.86962000
1.13343197	111.04160000	15.86962000
1.13843197	111.10260000	15.86962000
1.14343197	111.10260000	15.86962000
1.14843197	111.10260000	15.80859000
1.15343197	111.10260000	15.57970000
1.15843197	111.10260000	16.75466000
1.16343197	111.10260000	19.30296000
1.16843197	111.10260000	19.30296000
1.17343197	111.10260000	16.75466000
1.17843197	111.10260000	15.51866000
1.18343197	111.10260000	15.51866000
1.18843197	111.16370000	16.75466000
1.19343197	111.39250000	19.30296000
1.19843197	110.21760000	19.30296000
1.20343197	107.66930000	16.75466000
1.20843197	107.73030000	15.57970000
1.21343197	110.50750000	15.80859000
1.21843197	110.56860000	15.86962000
1.22343197	108.02030000	15.86962000
1.22843197	106.84530000	15.86962000
1.23343197	107.07420000	15.86962000
1.23843197	107.13520000	15.86962000
1.24343197	107.13520000	15.86962000
1.24843197	107.13520000	15.86962000
1.25343197	107.13520000	15.86962000
1.25843197	107.19630000	15.86962000
1.26343197	107.42510000	15.86962000
1.26843197	106.31120000	15.86962000
1.27343197	103.99180000	15.86962000
1.27843197	102.87790000	15.86962000
1.28343197	103.10680000	15.86962000
1.28843197	103.16780000	15.86962000
1.29343197	103.16780000	15.86962000
1.29843197	103.16780000	15.86962000
1.30343197	103.16780000	15.86962000
1.30843197	103.16780000	15.86962000
1.31343197	103.16780000	15.86962000
1.31843197	103.16780000	15.86962000
1.32343197	103.16780000	15.86962000
1.32843197	103.16780000	15.86962000
1.33343197	103.16780000	15.86962000
1.33843197	103.16780000	15.86962000
1.34343197	103.16780000	15.86962000
1.34843197	103.16780000	15.86962000
1.35343197	103.16780000	15.86962000
1.35843197	103.22890000	15.86962000
1.36343197	103.45770000	15.86962000
1.36843197	102.28280000	15.86962000
1.37343197	99.73448000	15.86962000
1.37843197	99.79552000	15.86962000
1.38343197	102.57270000	15.86962000
1.38843197	102.63370000	15.80859000
1.39343197	100.08540000	15.57970000
1.39843197	98.91048000	16.69362000
1.40343197	99.13937000	19.01303000
1.40843197	99.20041000	20.12696000
1.41343197	99.20041000	19.89807000
1.41843197	99.20041000	19.83703000
1.42343197	99.20041000	19.83703000
1.42843197	99.20041000	19.83703000
1.43343197	99.20041000	19.83703000
1.43843197	99.20041000	19.89807000
1.44343197	99.20041000	20.12696000
1.44843197	99.26145000	18.95199000
1.45343197	99.49034000	16.40370000
1.45843197	98.37641000	16.46474000
1.46343197	96.05700000	19.24192000
1.46843197	94.94308000	19.30296000
1.47343197	95.17197000	16.75466000
1.47843197	95.23300000	15.51866000
1.48343197	95.23300000	15.51866000
1.48843197	95.23300000	16.69362000
1.49343197	95.23300000	19.01303000
1.49843197	95.23300000	20.18799000
1.50343197	95.23300000	20.18799000
1.50843197	95.23300000	19.01303000
1.51343197	95.23300000	16.69362000
1.51843197	95.23300000	15.57970000
1.52343197	95.23300000	15.80859000
1.52843197	95.29404000	15.80859000
1.53343197	95.52293000	15.57970000
1.53843197	94.34796000	16.75466000
1.54343197	91.79967000	19.30296000
1.54843197	91.86070000	19.30296000
1.55343197	94.63789000	16.75466000
1.55843197	94.63789000	15.57970000
1.56343197	91.86070000	15.80859000
1.56843197	91.86070000	15.86962000
1.57343197	94.63789000	15.86962000
1.57843197	94.69893000	15.86962000
1.58343197	92.15063000	15.86962000
1.58843197	90.97568000	15.86962000
1.59343197	91.20457000	15.86962000
1.59843197	91.26560000	15.86962000
1.60343197	91.26560000	15.86962000
1.60843197	91.26560000	15.86962000
1.61343197	91.26560000	15.86962000
1.61843197	91.32664000	15.86962000
1.62343197	91.55552000	15.86962000
1.62843197	90.38056000	15.86962000
1.63343197	87.83227000	15.86962000
1.63843197	87.89330000	15.86962000
1.64343197	90.67049000	15.86962000
1.64843197	90.73153000	15.86962000
1.65343197	88.18323000	15.86962000
1.65843197	87.00826000	15.86962000
1.66343197	87.23715000	15.86962000
1.66843197	87.29819000	15.86962000
1.67343197	87.29819000	15.86962000
1.67843197	87.29819000	15.86962000
1.68343197	87.29819000	15.86962000
1.68843197	87.29819000	15.86962000
1.69343197	87.29819000	15.86962000
1.69843197	87.29819000	15.86962000
1.70343197	87.29819000	15.86962000
1.70843197	87.29819000	15.86962000
1.71343197	87.29819000	15.86962000
1.71843197	87.29819000	15.80859000
1.72343197	87.29819000	15.57970000
1.72843197	87.29819000	16.69362000
1.73343197	87.29819000	19.01303000
1.73843197	87.29819000	20.18799000
1.74343197	87.29819000	20.18799000
1.74843197	87.29819000	19.01303000
1.75343197	87.29819000	16.69362000
1.75843197	87.29819000	15.57970000
1.76343197	87.29819000	15.80859000
1.76843197	87.29819000	15.86962000
1.77343197	87.29819000	15.86962000
1.77843197	87.35923000	15.80859000
1.78343197	87.58812000	15.57970000
1.78843197	86.47419000	16.69362000
1.79343197	84.15479000	19.01303000
1.79843197	83.04086000	20.18799000
1.80343197	83.26974000	20.18799000
1.80843197	83.33078000	18.95199000
1.81343197	83.33078000	16.40370000
1.81843197	83.33078000	16.40370000
1.82343197	83.33078000	18.95199000
1.82843197	83.33078000	20.12696000
1.83343197	83.33078000	19.89807000
1.83843197	83.33078000	19.89807000
1.84343197	83.33078000	20.12696000
1.84843197	83.33078000	19.01303000
1.85343197	83.33078000	16.69362000
1.85843197	83.33078000	15.57970000
1.86343197	83.33078000	15.80859000
1.86843197	83.39182000	15.86962000
1.87343197	83.62070000	15.86962000
1.87843197	82.50678000	15.86962000
1.88343197	80.18738000	15.86962000
1.88843197	79.07346000	15.86962000
1.89343197	79.30235000	15.86962000
1.89843197	79.36338000	15.86962000
1.90343197	79.36338000	15.86962000
1.90843197	79.36338000	15.86962000
1.91343197	79.36338000	15.86962000
1.91843197	79.36338000	15.86962000
1.92343197	79.36338000	15.86962000
1.92843197	79.36338000	15.86962000
1.93343197	79.36338000	15.86962000
1.93843197	79.36338000	15.86962000
1.94343197	79.36338000	15.86962000
1.94843197	79.36338000	15.86962000
1.95343197	79.36338000	15.86962000
1.95843197	79.36338000	15.86962000
1.96343197	79.36338000	15.86962000
1.96843197	79.36338000	15.86962000
1.97343197	79.36338000	15.86962000
1.97843197	79.36338000	15.86962000
1.98343197	79.36338000	15.86962000
1.98843197	79.36338000	15.86962000
1.99343197	79.36338000	15.86962000
1.99843197	79.36338000	15.86962000
2.00343197	79.36338000	15.86962000
2.00843197	79.36338000	15.86962000
2.01343197	79.36338000	15.86962000
2.01843197	79.42442000	15.86962000
2.02343197	79.65331000	15.86962000
2.02843197	78.53938000	15.86962000
2.03343197	76.21997000	15.86962000
2.03843197	75.10605000	15.86962000
2.04343197	75.33494000	15.86962000
2.04843197	75.39597000	15.86962000
2.05343197	75.39597000	15.86962000
2.05843197	75.39597000	15.86962000
2.06343197	75.39597000	15.86962000
2.06843197	75.39597000	15.86962000
2.07343197	75.39597000	15.86962000
2.07843197	75.39597000	15.86962000
2.08343197	75.39597000	15.86962000
2.08843197	75.39597000	15.86962000
2.09343197	75.39597000	15.86962000
2.09843197	75.39597000	15.86962000
2.10343197	75.39597000	15.86962000
2.10843197	75.39597000	15.86962000
2.11343197	75.39597000	15.86962000
2.11843197	75.45701000	15.86962000
2.12343197	75.68590000	15.86962000
2.12843197	74.51093000	15.80859000
2.13343197	71.96265000	15.57970000
2.13843197	72.02368000	16.69362000
2.14343197	74.80086000	19.01303000
2.14843197	74.86190000	20.12696000
2.15343197	72.31360000	19.89807000
2.15843197	71.13864000	19.83703000
2.16343197	71.36753000	19.83703000
2.16843197	71.42857000	19.83703000
2.17343197	71.42857000	19.83703000
2.17843197	71.42857000	19.83703000
2.18343197	71.42857000	19.83703000
2.18843197	71.42857000	19.83703000
2.19343197	71.42857000	19.83703000
2.19843197	71.42857000	19.83703000
2.20343197	71.42857000	19.83703000
2.20843197	71.42857000	19.83703000
2.21343197	71.42857000	19.83703000
2.21843197	71.42857000	19.83703000
2.22343197	71.42857000	19.83703000
2.22843197	71.42857000	19.83703000
2.23343197	71.42857000	19.83703000
2.23843197	71.42857000	19.83703000
2.24343197	71.42857000	19.83703000
2.24843197	71.42857000	19.83703000
2.25343197	71.42857000	19.83703000
2.25843197	71.48961000	19.83703000
2.26343197	71.71850000	19.83703000
2.26843197	70.54353000	19.89807000
2.27343197	67.97997000	20.12696000
2.27843197	67.97997000	19.01303000
2.28343197	70.54353000	16.69362000
2.28843197	71.77953000	15.51866000
2.29343197	71.77953000	15.51866000
2.29843197	70.60457000	16.69362000
2.30343197	68.26991000	19.01303000
2.30843197	67.15598000	20.12696000
2.31343197	67.38486000	19.89807000
2.31843197	67.44590000	19.89807000
2.32343197	67.44590000	20.12696000
2.32843197	67.44590000	18.95199000
2.33343197	67.44590000	16.40370000
2.33843197	67.44590000	16.40370000
2.34343197	67.44590000	18.95199000
2.34843197	67.44590000	20.12696000
2.35343197	67.44590000	19.89807000
2.35843197	67.44590000	19.83703000
2.36343197	67.44590000	19.83703000
2.36843197	67.44590000	19.83703000
2.37343197	67.44590000	19.83703000
2.37843197	67.44590000	19.83703000
2.38343197	67.44590000	19.83703000
2.38843197	67.50694000	19.83703000
2.39343197	67.73582000	19.83703000
2.39843197	66.56087000	19.83703000
2.40343197	64.01257000	19.83703000
2.40843196	64.01257000	19.83703000
2.41343196	66.56087000	19.83703000
2.41843196	67.79687000	19.83703000
2.42343196	67.79687000	19.83703000
2.42843196	66.62190000	19.83703000
2.43343196	64.30249000	19.83703000
2.43843196	63.18857000	19.83703000
2.44343196	63.41746000	19.83703000
2.44843196	63.47850000	19.83703000
2.45343196	63.47850000	19.83703000
2.45843196	63.47850000	19.83703000
2.46343196	63.47850000	19.83703000
2.46843196	63.47850000	19.83703000
2.47343196	63.47850000	19.83703000
2.47843196	63.47850000	19.83703000
2.48343196	63.47850000	19.83703000
2.48843196	63.47850000	19.83703000
2.49343196	63.47850000	19.83703000
2.49843196	63.47850000	19.89807000
2.50343196	63.47850000	20.12696000
2.50843196	63.47850000	19.01303000
2.51343196	63.47850000	16.69362000
2.51843196	63.47850000	15.51866000
2.52343196	63.47850000	15.51866000
2.52843196	63.47850000	16.69362000
2.53343196	63.47850000	19.01303000
2.53843196	63.47850000	20.18799000
2.54343196	63.47850000	20.18799000
2.54843196	63.47850000	18.95199000
2.55343196	63.47850000	16.40370000
2.55843196	63.47850000	16.40370000
2.56343196	63.47850000	18.95199000
2.56843196	63.53953000	20.18799000
2.57343196	63.76842000	20.18799000
2.57843196	62.65450000	18.95199000
2.58343196	60.33509000	16.40370000
2.58843196	59.22116000	16.40370000
2.59343196	59.45005000	18.95199000
2.59843196	59.51109000	20.12696000
2.60343196	59.51109000	19.89807000
2.60843196	59.51109000	19.83703000
2.61343196	59.51109000	19.83703000
2.61843196	59.51109000	19.83703000
2.62343196	59.51109000	19.83703000
2.62843196	59.51109000	19.83703000
2.63343196	59.51109000	19.83703000
2.63843196	59.51109000	19.83703000
2.64343196	59.51109000	19.83703000
2.64843196	59.51109000	19.83703000
2.65343196	59.51109000	19.83703000
2.65843196	59.51109000	19.83703000
2.66343196	59.51109000	19.83703000
2.66843196	59.51109000	19.83703000
2.67343196	59.51109000	19.83703000
2.67843196	59.51109000	19.83703000
2.68343196	59.51109000	19.83703000
2.68843196	59.51109000	19.83703000
2.69343196	59.51109000	19.83703000
2.69843196	59.51109000	19.83703000
2.70343196	59.51109000	19.83703000
2.70843196	59.51109000	19.83703000
2.71343196	59.51109000	19.83703000
2.71843196	59.51109000	19.89807000
2.72343196	59.51109000	20.12696000
2.72843196	59.51109000	18.95199000
2.73343196	59.51109000	16.40370000
2.73843196	59.51109000	16.40370000
2.74343196	59.51109000	18.95199000
2.74843196	59.51109000	20.12696000
2.75343196	59.51109000	19.89807000
2.75843196	59.51109000	19.83703000
2.76343196	59.51109000	19.83703000
2.76843196	59.57213000	19.83703000
2.77343196	59.80102000	19.83703000
2.77843196	58.62605000	19.89807000
2.78343196	56.07775000	20.12696000
2.78843196	56.13879000	18.95199000
2.79343196	58.91598000	16.40370000
2.79843196	58.97702000	16.40370000
2.80343196	56.42872000	18.95199000
2.80843196	55.25376000	20.12696000
2.81343196	55.48264000	19.89807000
2.81843196	55.54368000	19.83703000
2.82343196	55.54368000	19.83703000
2.82843196	55.54368000	19.89807000
2.83343196	55.54368000	20.12696000
2.83843196	55.54368000	18.95199000
2.84343196	55.54368000	16.40370000
2.84843196	55.54368000	16.40370000
2.85343196	55.54368000	18.95199000
2.85843196	55.54368000	20.18799000
2.86343196	55.54368000	20.18799000
2.86843196	55.54368000	18.95199000
2.87343196	55.54368000	16.40370000
2.87843196	55.54368000	16.40370000
2.88343196	55.54368000	18.95199000
2.88843196	55.54368000	20.12696000
2.89343196	55.54368000	19.89807000
2.89843196	55.54368000	19.83703000
2.90343196	55.54368000	19.83703000
2.90843196	55.54368000	19.83703000
2.91343196	55.54368000	19.83703000
2.91843196	55.54368000	19.83703000
2.92343196	55.54368000	19.83703000
2.92843196	55.54368000	19.83703000
2.93343196	55.54368000	19.83703000
2.93843196	55.60472000	19.89807000
2.94343196	55.83361000	20.12696000
2.94843196	54.65865000	18.95199000
2.95343196	52.11035000	16.40370000
2.95843196	52.17139000	16.46474000
2.96343196	54.94857000	19.24192000
2.96843196	55.00961000	19.30296000
2.97343196	52.46132000	16.75466000
2.97843196	51.22532000	15.57970000
2.98343196	51.22532000	15.80859000
2.98843196	52.46132000	15.86962000
2.99343196	55.00961000	15.86962000
2.99843196	55.00961000	15.86962000
3.00343196	52.46132000	15.86962000
3.00843196	51.28635000	15.80859000
3.01343196	51.51524000	15.57970000
3.01843196	51.57627000	16.75466000
3.02343196	51.57627000	19.30296000
3.02843196	51.57627000	19.24192000
3.03343196	51.57627000	16.46474000
3.03843196	51.57627000	16.46474000
3.04343196	51.57627000	19.24192000
3.04843196	51.57627000	19.30296000
3.05343196	51.57627000	16.75466000
3.05843196	51.57627000	15.57970000
3.06343196	51.57627000	15.80859000
3.06843196	51.57627000	15.86962000
3.07343196	51.57627000	15.86962000
3.07843196	51.57627000	15.86962000
3.08343196	51.57627000	15.86962000
3.08843196	51.57627000	15.86962000
3.09343196	51.57627000	15.86962000
3.09843196	51.57627000	15.86962000
3.10343196	51.57627000	15.86962000
3.10843196	51.57627000	15.86962000
3.11343196	51.57627000	15.86962000
3.11843196	51.57627000	15.80859000
3.12343196	51.57627000	15.57970000
3.12843196	51.57627000	16.69362000
3.13343196	51.57627000	19.01303000
3.13843196	51.63731000	20.12696000
3.14343196	51.86620000	19.89807000
3.14843196	50.69124000	19.83703000
3.15343196	48.14294000	19.83703000
3.15843196	48.14294000	19.83703000
3.16343196	50.69124000	19.83703000
3.16843196	51.86620000	19.83703000
3.17343196	51.63731000	19.83703000
3.17843196	51.63731000	19.83703000
3.18343196	51.86620000	19.83703000
3.18843196	50.75228000	19.83703000
3.19343196	48.43287000	19.83703000
3.19843196	47.31895000	19.83703000
3.20343196	47.54784000	19.83703000
3.20843196	47.60887000	19.83703000
3.21343196	47.60887000	19.83703000
3.21843196	47.60887000	19.83703000
3.22343196	47.60887000	19.83703000
3.22843196	47.60887000	19.83703000
3.23343196	47.60887000	19.83703000
3.23843196	47.60887000	19.83703000
3.24343196	47.60887000	19.83703000
3.24843196	47.60887000	19.83703000
3.25343196	47.60887000	19.83703000
3.25843196	47.60887000	19.83703000
3.26343196	47.60887000	19.83703000
3.26843196	47.60887000	19.83703000
3.27343196	47.60887000	19.83703000
3.27843196	47.60887000	19.83703000
3.28343196	47.60887000	19.83703000
3.28843196	47.60887000	19.83703000
3.29343196	47.60887000	19.83703000
3.29843196	47.60887000	19.83703000
3.30343196	47.60887000	19.83703000
3.30843196	47.60887000	19.83703000
3.31343196	47.60887000	19.83703000
3.31843196	47.60887000	19.83703000
3.32343196	47.60887000	19.83703000
3.32843196	47.60887000	19.89807000
3.33343196	47.60887000	20.12696000
3.33843196	47.60887000	19.01303000
3.34343196	47.60887000	16.69362000
3.34843196	47.60887000	15.57970000
3.35343196	47.60887000	15.80859000
3.35843196	47.60887000	15.80859000
3.36343196	47.60887000	15.57970000
3.36843196	47.60887000	16.75466000
3.37343196	47.60887000	19.30296000
3.37843196	47.60887000	19.30296000
3.38343196	47.60887000	16.75466000
3.38843196	47.60887000	15.51866000
3.39343196	47.60887000	15.51866000
3.39843196	47.60887000	16.69362000
3.40343196	47.60887000	19.01303000
3.40843196	47.66991000	20.12696000
3.41343196	47.89880000	19.89807000
3.41843196	46.72383000	19.83703000
3.42343196	44.17554000	19.83703000
3.42843196	44.17554000	19.83703000
3.43343196	46.72383000	19.83703000
3.43843196	47.95984000	19.83703000
3.44343196	47.95984000	19.83703000
3.44843196	46.78487000	19.83703000
3.45343196	44.46547000	19.83703000
3.45843196	43.35154000	19.83703000
3.46343196	43.58043000	19.83703000
3.46843196	43.58043000	19.83703000
3.47343196	43.35154000	19.83703000
3.47843196	44.52650000	19.83703000
3.48343196	47.07480000	19.83703000
3.48843196	47.07480000	19.83703000
3.49343196	44.52650000	19.83703000
3.49843196	43.35154000	19.83703000
3.50343196	43.58043000	19.83703000
3.50843196	43.64147000	19.83703000
3.51343196	43.64147000	19.83703000
3.51843196	43.64147000	19.83703000
3.52343196	43.64147000	19.83703000
3.52843196	43.64147000	19.83703000
3.53343196	43.64147000	19.83703000
3.53843196	43.64147000	19.83703000
3.54343196	43.64147000	19.83703000
3.54843196	43.64147000	19.83703000
3.55343196	43.64147000	19.83703000
3.55843196	43.64147000	19.83703000
3.56343196	43.64147000	19.83703000
3.56843196	43.64147000	19.83703000
3.57343196	43.64147000	19.83703000
3.57843196	43.64147000	19.83703000
3.58343196	43.64147000	19.83703000
3.58843196	43.64147000	19.83703000
3.59343196	43.64147000	19.83703000
3.59843196	43.64147000	19.83703000
3.60343196	43.64147000	19.83703000
3.60843196	43.64147000	19.89807000
3.61343196	43.64147000	20.12696000
3.61843196	43.64147000	19.01303000
3.62343196	43.64147000	16.69362000
3.62843196	43.64147000	15.57970000
3.63343196	43.64147000	15.80859000
3.63843196	43.64147000	15.86962000
3.64343196	43.64147000	15.86962000
3.64843196	43.64147000	15.86962000
3.65343196	43.64147000	15.86962000
3.65843196	43.64147000	15.86962000
3.66343196	43.64147000	15.86962000
3.66843196	43.64147000	15.80859000
3.67343196	43.64147000	15.57970000
3.67843196	43.64147000	16.75466000
3.68343196	43.64147000	19.30296000
3.68843196	43.64147000	19.24192000
3.69343196	43.64147000	16.46474000
3.69843196	43.64147000	16.40370000
3.70343196	43.64147000	18.95199000
3.70843196	43.64147000	20.06592000
3.71343196	43.64147000	19.60814000
3.71843196	43.64147000	20.47792000
3.72343196	43.64147000	22.09540000
3.72843196	43.70250000	26.39851000
3.73343196	43.93139000	32.41066000
3.73843196	42.81747000	38.81954000
3.74343196	40.49806000	44.14502000
3.74843196	39.38414000	51.56102000
3.75343196	39.61302000	59.17539000
3.75843196	39.67406000	67.59850000
3.76343196	39.67406000	74.54145000
3.76843196	39.67406000	85.19241000
3.77343196	39.67406000	96.98782000
3.77843196	39.67406000	108.75270000
3.78343196	39.67406000	117.77090000
3.78843196	39.67406000	128.42190000
3.79343196	39.67406000	138.14200000
3.79843196	39.67406000	146.56510000
3.80343196	39.67406000	151.40230000
3.80843196	39.67406000	158.81830000
3.81343196	39.67406000	166.92100000
3.81843196	39.67406000	173.39090000
3.82343196	39.67406000	176.85480000
3.82843196	39.67406000	179.92190000
3.83343196	39.67406000	181.52410000
3.83843196	39.67406000	183.64510000
3.84343196	39.67406000	185.73560000
3.84843196	39.67406000	186.78850000
3.85343196	39.67406000	186.55960000
3.85843196	39.67406000	186.55960000
3.86343196	39.67406000	186.78850000
3.86843196	39.67406000	185.73560000
3.87343196	39.67406000	183.64510000
3.87843196	39.67406000	181.52410000
3.88343196	39.67406000	179.92190000
3.88843196	39.67406000	176.67160000
3.89343196	39.67406000	172.52110000
3.89843196	39.67406000	169.33190000
3.90343196	39.67406000	167.95860000
3.90843196	39.67406000	164.83050000
3.91343196	39.67406000	160.90880000
3.91843196	39.67406000	156.54470000
3.92343196	39.67406000	152.62310000
3.92843196	39.67406000	149.49490000
3.93343196	39.67406000	148.12160000
3.93843196	39.67406000	144.99340000
3.94343196	39.67406000	141.05650000
3.94843196	39.67406000	136.69240000
3.95343196	39.67406000	132.77080000
3.95843196	39.67406000	129.64260000
3.96343196	39.67406000	128.26930000
3.96843196	39.67406000	125.14110000
3.97343196	39.67406000	121.21950000
3.97843196	39.67406000	116.85540000
3.98343196	39.67406000	112.93370000
3.98843196	39.67406000	109.80560000
3.99343196	39.67406000	108.43230000
3.99843196	39.67406000	105.24310000
4.00343196	39.67406000	101.09260000
4.00843196	39.67406000	97.84234000
4.01343196	39.67406000	96.24011000
4.01843196	39.67406000	94.18011000
4.02343196	39.67406000	92.31848000
4.02843196	39.67406000	90.15167000
4.03343196	39.67406000	88.06116000
4.03843196	39.67406000	87.06931000
4.04343196	39.67406000	87.52708000
4.04843196	39.67406000	86.53522000
4.05343195	39.67406000	84.44471000
4.05843195	39.67406000	82.27789000
4.06343195	39.67406000	80.41627000
4.06843195	39.73510000	78.24945000
4.07343195	39.96399000	76.15894000
4.07843195	38.85006000	75.16708000
4.08343195	36.53065000	75.62486000
4.08843195	35.41673000	74.63301000
4.09343195	35.64562000	72.54249000
4.09843195	35.70665000	70.29939000
4.10343195	35.70665000	68.20886000
4.10843195	35.70665000	67.21701000
4.11343195	35.70665000	67.67479000
4.11843195	35.70665000	66.68294000
4.12343195	35.70665000	64.59242000
4.12843195	35.70665000	62.36457000
4.13343195	35.70665000	60.27405000
4.13843195	35.70665000	59.28220000
4.14343195	35.70665000	59.73998000
4.14843195	35.70665000	58.68709000
4.15343195	35.70665000	56.36768000
4.15843195	35.70665000	55.25376000
4.16343195	35.70665000	55.48264000
4.16843195	35.70665000	55.60472000
4.17343195	35.70665000	55.83361000
4.17843195	35.70665000	54.71968000
4.18343195	35.70665000	52.40028000
4.18843195	35.70665000	51.34739000
4.19343195	35.70665000	51.80516000
4.19843195	35.70665000	50.69124000
4.20343195	35.70665000	48.14294000
4.20843195	35.70665000	48.20398000
4.21343195	35.70665000	50.98117000
4.21843195	35.70665000	51.04220000
4.22343195	35.70665000	48.49391000
4.22843195	35.70665000	47.31895000
4.23343195	35.70665000	47.54784000
4.23843195	35.70665000	47.60887000
4.24343195	35.70665000	47.60887000
4.24843195	35.70665000	47.60887000
4.25343195	35.70665000	47.60887000
4.25843195	35.70665000	47.66991000
4.26343195	35.70665000	47.89880000
4.26843195	35.70665000	46.78487000
4.27343195	35.70665000	44.46547000
4.27843195	35.70665000	43.35154000
4.28343195	35.70665000	43.58043000
4.28843195	35.70665000	43.64147000
4.29343195	35.70665000	43.64147000
4.29843195	35.70665000	43.70250000
4.30343195	35.70665000	43.93139000
4.30843195	35.70665000	42.81747000
4.31343195	35.70665000	40.49806000
4.31843195	35.70665000	39.38414000
4.32343195	35.70665000	39.61302000
4.32843195	35.70665000	39.67406000
4.33343195	35.70665000	39.67406000
4.33843195	35.70665000	39.67406000
4.34343195	35.70665000	39.67406000
4.34843195	35.70665000	39.67406000
4.35343195	35.70665000	39.67406000
4.35843195	35.70665000	39.67406000
4.36343195	35.70665000	39.67406000
4.36843195	35.70665000	39.67406000
4.37343195	35.70665000	39.67406000
4.37843195	35.70665000	39.67406000
4.38343195	35.70665000	39.67406000
4.38843195	35.76769000	39.67406000
4.39343195	35.99658000	39.67406000
4.39843195	34.82162000	39.67406000
4.40343195	32.27332000	39.67406000
4.40843195	32.27332000	39.73510000
4.41343195	34.82162000	39.96399000
4.41843195	35.99658000	38.85006000
4.42343195	35.76769000	36.53065000
4.42843195	35.76769000	35.41673000
4.43343195	35.99658000	35.64562000
4.43843195	34.88266000	35.70665000
4.44343195	32.56325000	35.70665000
4.44843195	31.44932000	35.70665000
4.45343195	31.67821000	35.70665000
4.45843195	31.73925000	35.70665000
4.46343195	31.73925000	35.70665000
4.46843195	31.73925000	35.70665000
4.47343195	31.73925000	35.70665000
4.47843195	31.73925000	35.70665000
4.48343195	31.73925000	35.70665000
4.48843195	31.67821000	35.70665000
4.49343195	31.44932000	35.70665000
4.49843195	32.62428000	35.76769000
4.50343195	35.17258000	35.99658000
4.50843195	35.17258000	34.88266000
4.51343195	32.62428000	32.56325000
4.51843195	31.44932000	31.44932000
4.52343195	31.67821000	31.67821000
4.52843195	31.73925000	31.73925000
4.53343195	31.73925000	31.73925000
4.53843195	31.67821000	31.73925000
4.54343195	31.44932000	31.73925000
4.54843195	32.62428000	31.73925000
4.55343195	35.17258000	31.73925000
4.55843195	35.17258000	31.73925000
4.56343195	32.62428000	31.73925000
4.56843195	31.44932000	31.73925000
4.57343195	31.67821000	31.73925000
4.57843195	31.73925000	31.73925000
4.58343195	31.73925000	31.73925000
4.58843195	31.73925000	31.73925000
4.59343195	31.73925000	31.73925000
4.59843195	31.73925000	31.73925000
4.60343195	31.73925000	31.73925000
4.60843195	31.73925000	31.80028000
4.61343195	31.73925000	32.02917000
4.61843195	31.73925000	30.91525000
4.62343195	31.73925000	28.59584000
4.62843195	31.73925000	27.48192000
4.63343195	31.73925000	27.71080000
4.63843195	31.73925000	27.77184000
4.64343195	31.73925000	27.77184000
4.64843195	31.73925000	27.71080000
4.65343195	31.73925000	27.48192000
4.65843195	31.73925000	28.65688000
4.66343195	31.73925000	31.20517000
4.66843195	31.73925000	31.20517000
4.67343195	31.73925000	28.65688000
4.67843195	31.73925000	27.48192000
4.68343195	31.73925000	27.71080000
4.68843195	31.73925000	27.77184000
4.69343195	31.73925000	27.77184000
4.69843195	31.73925000	27.77184000
4.70343195	31.73925000	27.77184000
4.70843195	31.73925000	27.77184000
4.71343195	31.73925000	27.77184000
4.71843195	31.73925000	27.77184000
4.72343195	31.73925000	27.77184000
4.72843195	31.73925000	27.77184000
4.73343195	31.73925000	27.77184000
4.73843195	31.73925000	27.77184000
4.74343195	31.73925000	27.77184000
4.74843195	31.73925000	27.77184000
4.75343195	31.73925000	27.77184000
4.75843195	31.73925000	27.77184000
4.76343195	31.73925000	27.77184000
4.76843195	31.73925000	27.77184000
4.77343195	31.73925000	27.77184000
4.77843195	31.73925000	27.77184000
4.78343195	31.73925000	27.77184000
4.78843195	31.73925000	27.77184000
4.79343195	31.73925000	27.77184000
4.79843195	31.73925000	27.77184000
4.80343195	31.73925000	27.77184000
4.80843195	31.73925000	27.77184000
4.81343195	31.73925000	27.77184000
4.81843195	31.73925000	27.77184000
4.82343195	31.73925000	27.77184000
4.82843195	31.73925000	27.77184000
4.83343195	31.73925000	27.77184000
4.83843195	31.73925000	27.77184000
4.84343195	31.73925000	27.77184000
4.84843195	31.73925000	27.77184000
4.85343195	31.73925000	27.77184000
4.85843195	31.73925000	27.77184000
4.86343195	31.73925000	27.77184000
4.86843195	31.73925000	27.77184000
4.87343195	31.73925000	27.77184000
4.87843195	31.73925000	27.77184000
4.88343195	31.73925000	27.77184000
4.88843195	31.73925000	27.77184000
4.89343195	31.73925000	27.77184000
4.89843195	31.73925000	27.77184000
4.90343195	31.73925000	27.77184000
4.90843195	31.73925000	27.77184000
4.91343195	31.73925000	27.77184000
4.91843195	31.73925000	27.83288000
4.92343195	31.73925000	28.06177000
4.92843195	31.73925000	26.94784000
4.93343195	31.73925000	24.62844000
4.93843195	31.73925000	23.51451000
4.94343195	31.73925000	23.74340000
4.94843195	31.73925000	23.74340000
4.95343195	31.73925000	23.51451000
4.95843195	31.73925000	24.68947000
4.96343195	31.73925000	27.23777000
4.96843195	31.73925000	27.17673000
4.97343195	31.73925000	24.39955000
4.97843195	31.73925000	24.39955000
4.98343195	31.73925000	27.17673000
4.98843195	31.80028000	27.17673000
4.99343195	32.02917000	24.39955000
4.99843195	30.91525000	24.39955000
5.00343195	28.59584000	27.17673000
5.00843195	27.42088000	27.23777000
5.01343195	27.42088000	24.68947000
5.01843195	28.65688000	23.51451000
5.02343195	31.20517000	23.74340000
5.02843195	31.20517000	23.80444000
5.03343195	28.65688000	23.80444000
5.03843195	27.42088000	23.80444000
5.04343195	27.42088000	23.80444000
5.04843195	28.59584000	23.80444000
5.05343195	30.91525000	23.80444000
5.05843195	32.02917000	23.80444000
5.06343195	31.80028000	23.80444000
5.06843195	31.73925000	23.74340000
5.07343195	31.73925000	23.51451000
5.07843195	31.80028000	24.68947000
5.08343195	32.02917000	27.23777000
5.08843195	30.91525000	27.23777000
5.09343195	28.59584000	24.68947000
5.09843195	27.48192000	23.51451000
5.10343195	27.71080000	23.74340000
5.10843195	27.71080000	23.80444000
5.11343195	27.48192000	23.80444000
5.11843195	28.59584000	23.80444000
5.12343195	30.91525000	23.80444000
5.12843195	32.09021000	23.80444000
5.13343195	32.09021000	23.80444000
5.13843195	30.91525000	23.80444000
5.14343195	28.59584000	23.80444000
5.14843195	27.42088000	23.80444000
5.15343195	27.42088000	23.80444000
5.15843195	28.65688000	23.80444000
5.16343195	31.20517000	23.80444000
5.16843195	31.20517000	23.80444000
5.17343195	28.65688000	23.80444000
5.17843195	27.48192000	23.80444000
5.18343195	27.71080000	23.80444000
5.18843195	27.77184000	23.80444000
5.19343195	27.77184000	23.80444000
5.19843195	27.71080000	23.80444000
5.20343195	27.48192000	23.80444000
5.20843195	28.65688000	23.80444000
5.21343195	31.20517000	23.80444000
5.21843195	31.20517000	23.80444000
5.22343195	28.65688000	23.80444000
5.22843195	27.48192000	23.80444000
5.23343195	27.71080000	23.80444000
5.23843195	27.77184000	23.80444000
5.24343195	27.77184000	23.80444000
5.24843195	27.77184000	23.80444000
5.25343195	27.77184000	23.80444000
5.25843195	27.77184000	23.80444000
5.26343195	27.77184000	23.80444000
5.26843195	27.77184000	23.80444000
5.27343195	27.77184000	23.80444000
5.27843195	27.77184000	23.80444000
5.28343195	27.77184000	23.80444000
5.28843195	27.77184000	23.80444000
5.29343195	27.77184000	23.80444000
5.29843195	27.77184000	23.80444000
5.30343195	27.77184000	23.80444000
5.30843195	27.77184000	23.80444000
5.31343195	27.77184000	23.80444000
5.31843195	27.77184000	23.80444000
5.32343195	27.77184000	23.80444000
5.32843195	27.77184000	23.86547000
5.33343195	27.77184000	24.09436000
5.33843195	27.77184000	22.91940000
5.34343195	27.77184000	20.37111000
5.34843195	27.77184000	20.37111000
5.35343195	27.77184000	22.91940000
5.35843195	27.77184000	24.09436000
5.36343195	27.77184000	23.86547000
5.36843195	27.77184000	23.80444000
5.37343195	27.77184000	23.80444000
5.37843195	27.77184000	23.80444000
5.38343195	27.77184000	23.80444000
5.38843195	27.77184000	23.80444000
5.39343195	27.77184000	23.80444000
5.39843195	27.77184000	23.80444000
5.40343195	27.77184000	23.80444000
5.40843195	27.77184000	23.80444000
5.41343195	27.77184000	23.80444000
5.41843195	27.77184000	23.80444000
5.42343195	27.77184000	23.80444000
5.42843195	27.77184000	23.80444000
5.43343195	27.77184000	23.80444000
5.43843195	27.77184000	23.80444000
5.44343195	27.77184000	23.80444000
5.44843195	27.77184000	23.80444000
5.45343195	27.77184000	23.80444000
5.45843195	27.77184000	23.80444000
5.46343195	27.77184000	23.80444000
5.46843195	27.77184000	23.80444000
5.47343195	27.77184000	23.80444000
5.47843195	27.77184000	23.80444000
5.48343195	27.77184000	23.80444000
5.48843195	27.77184000	23.80444000
5.49343195	27.77184000	23.80444000
5.49843195	27.77184000	23.80444000
5.50343195	27.77184000	23.80444000
5.50843195	27.77184000	23.80444000
5.51343195	27.77184000	23.80444000
5.51843195	27.77184000	23.80444000
5.52343195	27.77184000	23.80444000
5.52843195	27.77184000	23.80444000
5.53343195	27.77184000	23.80444000
5.53843195	27.77184000	23.80444000
5.54343195	27.77184000	23.80444000
5.54843195	27.77184000	23.80444000
5.55343195	27.77184000	23.80444000
5.55843195	27.77184000	23.80444000
5.56343195	27.77184000	23.80444000
5.56843195	27.77184000	23.80444000
5.57343195	27.77184000	23.80444000
5.57843195	27.77184000	23.86547000
5.58343195	27.77184000	24.09436000
5.58843195	27.83288000	22.98043000
5.59343195	28.06177000	20.66103000
5.59843195	26.88680000	19.54710000
5.60343195	24.33851000	19.77599000
5.60843195	24.39955000	19.77599000
5.61343195	27.17673000	19.54710000
5.61843195	27.17673000	20.72207000
5.62343195	24.39955000	23.27036000
5.62843195	24.33851000	23.27036000
5.63343195	26.88680000	20.72207000
5.63843195	28.06177000	19.48607000
5.64343195	27.83288000	19.48607000
5.64843195	27.77184000	20.66103000
5.65343195	27.77184000	22.98043000
5.65843195	27.83288000	24.09436000
5.66343195	28.06177000	23.86547000
5.66843195	26.94784000	23.80444000
5.67343195	24.62844000	23.80444000
5.67843195	23.51451000	23.80444000
5.68343195	23.74340000	23.80444000
5.68843195	23.80444000	23.80444000
5.69343195	23.80444000	23.80444000
5.69843194	23.80444000	23.80444000
5.70343194	23.80444000	23.80444000
5.70843194	23.80444000	23.80444000
5.71343194	23.80444000	23.80444000
5.71843194	23.74340000	23.86547000
5.72343194	23.51451000	24.09436000
5.72843194	24.62844000	22.98043000
5.73343194	26.94784000	20.66103000
5.73843194	28.12280000	19.54710000
5.74343194	28.12280000	19.77599000
5.74843194	26.88680000	19.83703000
5.75343194	24.33851000	19.83703000
5.75843194	24.33851000	19.83703000
5.76343194	26.88680000	19.83703000
5.76843194	28.12280000	19.83703000
5.77343194	28.12280000	19.83703000
5.77843194	26.94784000	19.83703000
5.78343194	24.62844000	19.83703000
5.78843194	23.51451000	19.83703000
5.79343194	23.74340000	19.83703000
5.79843194	23.80444000	19.83703000
5.80343194	23.80444000	19.83703000
5.80843194	23.74340000	19.83703000
5.81343194	23.51451000	19.83703000
5.81843194	24.68947000	19.83703000
5.82343194	27.23777000	19.83703000
5.82843194	27.23777000	19.77599000
5.83343194	24.68947000	19.54710000
5.83843194	23.51451000	20.72207000
5.84343194	23.74340000	23.27036000
5.84843194	23.80444000	23.27036000
5.85343194	23.80444000	20.72207000
5.85843194	23.80444000	19.54710000
5.86343194	23.80444000	19.77599000
5.86843194	23.80444000	19.77599000
5.87343194	23.80444000	19.54710000
5.87843194	23.80444000	20.72207000
5.88343194	23.80444000	23.27036000
5.88843194	23.80444000	23.27036000
5.89343194	23.80444000	20.72207000
5.89843194	23.80444000	19.54710000
5.90343194	23.80444000	19.77599000
5.90843194	23.80444000	19.83703000
5.91343194	23.80444000	19.83703000
5.91843194	23.80444000	19.83703000
5.92343194	23.80444000	19.83703000
5.92843194	23.80444000	19.83703000
5.93343194	23.80444000	19.83703000
5.93843194	23.80444000	19.83703000
5.94343194	23.80444000	19.83703000
5.94843194	23.80444000	19.83703000
5.95343194	23.80444000	19.83703000
5.95843194	23.80444000	19.83703000
5.96343194	23.80444000	19.83703000
5.96843194	23.80444000	19.83703000
5.97343194	23.80444000	19.83703000
5.97843194	23.80444000	19.83703000
5.98343194	23.80444000	19.83703000
5.98843194	23.80444000	19.83703000
5.99343194	23.80444000	19.83703000
5.99843194	23.80444000	19.83703000
6.00343194	23.80444000	19.83703000
6.00843194	23.80444000	19.83703000
6.01343194	23.80444000	19.83703000
6.01843194	23.80444000	19.83703000
6.02343194	23.80444000	19.83703000
6.02843194	23.80444000	19.83703000
6.03343194	23.80444000	19.83703000
6.03843194	23.80444000	19.83703000
6.04343194	23.80444000	19.83703000
6.04843194	23.80444000	19.83703000
6.05343194	23.80444000	19.83703000
6.05843194	23.80444000	19.83703000
6.06343194	23.80444000	19.83703000
6.06843194	23.80444000	19.83703000
6.07343194	23.80444000	19.83703000
6.07843194	23.80444000	19.83703000
6.08343194	23.80444000	19.83703000
6.08843194	23.80444000	19.83703000
6.09343194	23.80444000	19.83703000
6.09843194	23.80444000	19.83703000
6.10343194	23.80444000	19.83703000
6.10843194	23.80444000	19.83703000
6.11343194	23.80444000	19.83703000
6.11843194	23.80444000	19.83703000
6.12343194	23.80444000	19.83703000
6.12843194	23.80444000	19.83703000
6.13343194	23.80444000	19.83703000
6.13843194	23.80444000	19.83703000
6.14343194	23.80444000	19.83703000
6.14843194	23.80444000	19.83703000
6.15343194	23.80444000	19.83703000
6.15843194	23.80444000	19.83703000
6.16343194	23.80444000	19.83703000
6.16843194	23.80444000	19.83703000
6.17343194	23.80444000	19.83703000
6.17843194	23.80444000	19.83703000
6.18343194	23.80444000	19.83703000
6.18843194	23.80444000	19.83703000
6.19343194	23.80444000	19.83703000
6.19843194	23.80444000	19.83703000
6.20343194	23.80444000	19.83703000
6.20843194	23.80444000	19.83703000
6.21343194	23.80444000	19.83703000
6.21843194	23.80444000	19.83703000
6.22343194	23.80444000	19.83703000
6.22843194	23.80444000	19.83703000
6.23343194	23.80444000	19.83703000
6.23843194	23.80444000	19.83703000
6.24343194	23.80444000	19.83703000
6.24843194	23.80444000	19.83703000
6.25343194	23.80444000	19.83703000
6.25843194	23.80444000	19.83703000
6.26343194	23.80444000	19.83703000
6.26843194	23.80444000	19.83703000
6.27343194	23.80444000	19.83703000
6.27843194	23.80444000	19.83703000
6.28343194	23.80444000	19.83703000
6.28843194	23.80444000	19.83703000
6.29343194	23.80444000	19.83703000
6.29843194	23.80444000	19.77599000
6.30343194	23.80444000	19.54710000
6.30843194	23.80444000	20.72207000
6.31343194	23.80444000	23.27036000
6.31843194	23.80444000	23.27036000
6.32343194	23.80444000	20.72207000
6.32843194	23.80444000	19.54710000
6.33343194	23.80444000	19.77599000
6.33843194	23.80444000	19.83703000
6.34343194	23.80444000	19.83703000
6.34843194	23.80444000	19.83703000
6.35343194	23.80444000	19.83703000
6.35843194	23.80444000	19.83703000
6.36343194	23.80444000	19.83703000
6.36843194	23.80444000	19.83703000
6.37343194	23.80444000	19.83703000
6.37843194	23.80444000	19.83703000
6.38343194	23.80444000	19.83703000
6.38843194	23.80444000	19.83703000
6.39343194	23.80444000	19.83703000
6.39843194	23.80444000	19.83703000
6.40343194	23.80444000	19.83703000
6.40843194	23.80444000	19.83703000
6.41343194	23.80444000	19.83703000
6.41843194	23.80444000	19.83703000
6.42343194	23.80444000	19.83703000
6.42843194	23.80444000	19.83703000
6.43343194	23.80444000	19.83703000
6.43843194	23.80444000	19.83703000
6.44343194	23.80444000	19.83703000
6.44843194	23.86547000	19.83703000
6.45343194	24.09436000	19.83703000
6.45843194	22.91940000	19.83703000
6.46343194	20.37111000	19.83703000
6.46843194	20.37111000	19.83703000
6.47343194	22.91940000	19.83703000
6.47843194	24.09436000	19.83703000
6.48343194	23.86547000	19.83703000
6.48843194	23.80444000	19.83703000
6.49343194	23.80444000	19.83703000
6.49843194	23.80444000	19.83703000
6.50343194	23.80444000	19.83703000
6.50843194	23.80444000	19.83703000
6.51343194	23.80444000	19.83703000
6.51843194	23.80444000	19.83703000
6.52343194	23.80444000	19.83703000
6.52843194	23.80444000	19.83703000
6.53343194	23.80444000	19.83703000
6.53843194	23.80444000	19.83703000
6.54343194	23.80444000	19.83703000
6.54843194	23.80444000	19.83703000
6.55343194	23.80444000	19.83703000
6.55843194	23.80444000	19.83703000
6.56343194	23.80444000	19.83703000
6.56843194	23.80444000	19.83703000
6.57343194	23.80444000	19.83703000
6.57843194	23.86547000	19.83703000
6.58343194	24.09436000	19.83703000
6.58843194	22.91940000	19.83703000
6.59343194	20.37111000	19.83703000
6.59843194	20.37111000	19.83703000
6.60343194	22.91940000	19.83703000
6.60843194	24.15540000	19.83703000
6.61343194	24.15540000	19.83703000
6.61843194	22.91940000	19.83703000
6.62343194	20.37111000	19.83703000
6.62843194	20.37111000	19.83703000
6.63343194	22.91940000	19.83703000
6.63843194	24.15540000	19.83703000
6.64343194	24.15540000	19.83703000
6.64843194	22.91940000	19.83703000
6.65343194	20.37111000	19.83703000
6.65843194	20.37111000	19.83703000
6.66343194	22.91940000	19.83703000
6.66843194	24.09436000	19.83703000
6.67343194	23.86547000	19.83703000
6.67843194	23.80444000	19.83703000
6.68343194	23.80444000	19.83703000
6.68843194	23.86547000	19.83703000
6.69343194	24.09436000	19.83703000
6.69843194	22.91940000	19.83703000
6.70343194	20.37111000	19.83703000
6.70843194	20.43214000	19.83703000
6.71343194	23.20932000	19.83703000
6.71843194	23.27036000	19.83703000
6.72343194	20.72207000	19.83703000
6.72843194	19.54710000	19.89807000
6.73343194	19.77599000	20.12696000
6.73843194	19.83703000	18.95199000
6.74343194	19.83703000	16.40370000
6.74843194	19.83703000	16.46474000
6.75343194	19.83703000	19.24192000
6.75843194	19.77599000	19.30296000
6.76343194	19.54710000	16.75466000
6.76843194	20.72207000	15.51866000
6.77343194	23.27036000	15.51866000
6.77843194	23.27036000	16.69362000
6.78343194	20.72207000	19.01303000
6.78843194	19.54710000	20.18799000
6.79343194	19.77599000	20.18799000
6.79843194	19.77599000	19.01303000
6.80343194	19.54710000	16.69362000
6.80843194	20.66103000	15.51866000
6.81343194	22.98043000	15.51866000
6.81843194	24.15540000	16.69362000
6.82343194	24.15540000	19.01303000
6.82843194	22.91940000	20.12696000
6.83343194	20.37111000	19.89807000
6.83843194	20.43214000	19.83703000
6.84343194	23.20932000	19.83703000
6.84843194	23.27036000	19.89807000
6.85343194	20.72207000	20.12696000
6.85843194	19.54710000	18.95199000
6.86343194	19.77599000	16.40370000
6.86843194	19.83703000	16.40370000
6.87343194	19.83703000	18.95199000
6.87843194	19.83703000	20.12696000
6.88343194	19.83703000	19.89807000
6.88843194	19.83703000	19.83703000
6.89343194	19.83703000	19.83703000
6.89843194	19.83703000	19.83703000
6.90343194	19.83703000	19.83703000
6.90843194	19.77599000	19.83703000
6.91343194	19.54710000	19.83703000
6.91843194	20.72207000	19.83703000
6.92343194	23.27036000	19.83703000
6.92843194	23.27036000	19.83703000
6.93343194	20.72207000	19.83703000
6.93843194	19.54710000	19.83703000
6.94343194	19.77599000	19.83703000
6.94843194	19.83703000	19.83703000
6.95343194	19.83703000	19.83703000
6.95843194	19.83703000	19.83703000
6.96343194	19.83703000	19.83703000
6.96843194	19.83703000	19.83703000
6.97343194	19.83703000	19.83703000
6.97843194	19.83703000	19.83703000
6.98343194	19.83703000	19.83703000
6.98843194	19.83703000	19.83703000
6.99343194	19.83703000	19.83703000
6.99843194	19.83703000	19.83703000
7.00343194	19.83703000	19.83703000
7.00843194	19.83703000	19.83703000
7.01343194	19.83703000	19.83703000
7.01843194	19.83703000	19.83703000
7.02343194	19.83703000	19.83703000
7.02843194	19.83703000	19.83703000
7.03343194	19.83703000	19.83703000
7.03843194	19.83703000	19.83703000
7.04343194	19.83703000	19.83703000
7.04843194	19.83703000	19.83703000
7.05343194	19.83703000	19.83703000
7.05843194	19.83703000	19.83703000
7.06343194	19.83703000	19.83703000
7.06843194	19.83703000	19.83703000
7.07343194	19.83703000	19.83703000
7.07843194	19.83703000	19.83703000
7.08343194	19.83703000	19.83703000
7.08843194	19.83703000	19.89807000
7.09343194	19.83703000	20.12696000
7.09843194	19.83703000	18.95199000
7.10343194	19.83703000	16.40370000
7.10843194	19.83703000	16.40370000
7.11343194	19.83703000	18.95199000
7.11843194	19.83703000	20.12696000
7.12343194	19.83703000	19.89807000
7.12843194	19.83703000	19.83703000
7.13343194	19.83703000	19.83703000
7.13843194	19.83703000	19.89807000
7.14343194	19.83703000	20.12696000
7.14843194	19.83703000	19.01303000
7.15343194	19.83703000	16.69362000
7.15843194	19.83703000	15.57970000
7.16343194	19.83703000	15.80859000
7.16843194	19.83703000	15.80859000
7.17343194	19.83703000	15.57970000
7.17843194	19.83703000	16.75466000
7.18343194	19.83703000	19.30296000
7.18843194	19.83703000	19.30296000
7.19343194	19.83703000	16.75466000
7.19843194	19.83703000	15.57970000
7.20343194	19.83703000	15.80859000
7.20843194	19.83703000	15.86962000
7.21343194	19.83703000	15.86962000
7.21843194	19.83703000	15.80859000
7.22343194	19.83703000	15.57970000
7.22843194	19.83703000	16.75466000
7.23343194	19.83703000	19.30296000
7.23843194	19.83703000	19.30296000
7.24343194	19.83703000	16.75466000
7.24843194	19.83703000	15.57970000
7.25343194	19.83703000	15.80859000
7.25843194	19.83703000	15.86962000
7.26343194	19.83703000	15.86962000
7.26843194	19.83703000	15.80859000
7.27343194	19.83703000	15.57970000
7.27843194	19.83703000	16.75466000
7.28343194	19.83703000	19.30296000
7.28843194	19.83703000	19.30296000
7.29343194	19.83703000	16.75466000
7.29843194	19.83703000	15.57970000
7.30343194	19.83703000	15.80859000
7.30843194	19.83703000	15.80859000
7.31343194	19.83703000	15.57970000
7.31843194	19.83703000	16.69362000
7.32343194	19.83703000	19.01303000
7.32843194	19.83703000	20.18799000
7.33343194	19.83703000	20.18799000
7.33843194	19.83703000	19.01303000
7.34343193	19.83703000	16.69362000
7.34843193	19.83703000	15.57970000
7.35343193	19.83703000	15.80859000
7.35843193	19.83703000	15.86962000
7.36343193	19.83703000	15.86962000
7.36843193	19.83703000	15.86962000
7.37343193	19.83703000	15.86962000
7.37843193	19.83703000	15.86962000
7.38343193	19.83703000	15.86962000
7.38843193	19.83703000	15.86962000
7.39343193	19.83703000	15.86962000
7.39843193	19.83703000	15.86962000
7.40343193	19.83703000	15.86962000
7.40843193	19.83703000	15.86962000
7.41343193	19.83703000	15.86962000
7.41843193	19.83703000	15.86962000
7.42343193	19.83703000	15.86962000
7.42843193	19.83703000	15.86962000
7.43343193	19.83703000	15.86962000
7.43843193	19.83703000	15.80859000
7.44343193	19.83703000	15.57970000
7.44843193	19.83703000	16.69362000
7.45343193	19.83703000	19.01303000
7.45843193	19.83703000	20.12696000
7.46343193	19.83703000	19.89807000
7.46843193	19.83703000	19.83703000
7.47343193	19.83703000	19.83703000
7.47843193	19.83703000	19.83703000
7.48343193	19.83703000	19.83703000
7.48843193	19.83703000	19.83703000
7.49343193	19.83703000	19.83703000
7.49843193	19.83703000	19.83703000
7.50343193	19.83703000	19.83703000
7.50843193	19.83703000	19.83703000
7.51343193	19.83703000	19.83703000
7.51843193	19.83703000	19.83703000
7.52343193	19.83703000	19.83703000
7.52843193	19.83703000	19.83703000
7.53343193	19.83703000	19.83703000
7.53843193	19.83703000	19.83703000
7.54343193	19.83703000	19.83703000
7.54843193	19.83703000	19.83703000
7.55343193	19.83703000	19.83703000
7.55843193	19.83703000	19.89807000
7.56343193	19.83703000	20.12696000
7.56843193	19.83703000	18.95199000
7.57343193	19.83703000	16.40370000
7.57843193	19.83703000	16.40370000
7.58343193	19.83703000	18.95199000
7.58843193	19.83703000	20.18799000
7.59343193	19.83703000	20.18799000
7.59843193	19.83703000	18.95199000
7.60343193	19.83703000	16.40370000
7.60843193	19.83703000	16.46474000
7.61343193	19.83703000	19.24192000
7.61843193	19.83703000	19.30296000
7.62343193	19.83703000	16.75466000
7.62843193	19.83703000	15.51866000
7.63343193	19.83703000	15.51866000
7.63843193	19.83703000	16.75466000
7.64343193	19.83703000	19.30296000
7.64843193	19.83703000	19.24192000
7.65343193	19.83703000	16.46474000
7.65843193	19.83703000	16.40370000
7.66343193	19.83703000	18.95199000
7.66843193	19.83703000	20.12696000
7.67343193	19.83703000	19.89807000
7.67843193	19.83703000	19.83703000
7.68343193	19.83703000	19.83703000
7.68843193	19.83703000	19.83703000
7.69343193	19.83703000	19.83703000
7.69843193	19.83703000	19.83703000
7.70343193	19.83703000	19.83703000
7.70843193	19.83703000	19.83703000
7.71343193	19.83703000	19.83703000
7.71843193	19.83703000	19.89807000
7.72343193	19.83703000	20.12696000
7.72843193	19.83703000	18.95199000
7.73343193	19.83703000	16.40370000
7.73843193	19.83703000	16.40370000
7.74343193	19.83703000	18.95199000
7.74843193	19.83703000	20.12696000
7.75343193	19.83703000	19.89807000
7.75843193	19.83703000	19.83703000
7.76343193	19.83703000	19.83703000
7.76843193	19.83703000	19.83703000
7.77343193	19.83703000	19.83703000
7.77843193	19.83703000	19.83703000
7.78343193	19.83703000	19.83703000
7.78843193	19.83703000	19.83703000
7.79343193	19.83703000	19.83703000
7.79843193	19.83703000	19.83703000
7.80343193	19.83703000	19.83703000
7.80843193	19.83703000	19.83703000
7.81343193	19.83703000	19.83703000
7.81843193	19.83703000	19.89807000
7.82343193	19.83703000	20.12696000
7.82843193	19.83703000	18.95199000
7.83343193	19.83703000	16.40370000
7.83843193	19.83703000	16.46474000
7.84343193	19.83703000	19.24192000
7.84843193	19.83703000	19.30296000
7.85343193	19.83703000	16.75466000
7.85843193	19.83703000	15.57970000
7.86343193	19.83703000	15.80859000
7.86843193	19.83703000	15.86962000
7.87343193	19.83703000	15.86962000
7.87843193	19.83703000	15.86962000
7.88343193	19.83703000	15.86962000
7.88843193	19.83703000	15.86962000
7.89343193	19.83703000	15.86962000
7.89843193	19.83703000	15.86962000
7.90343193	19.83703000	15.86962000
7.90843193	19.83703000	15.80859000
7.91343193	19.83703000	15.57970000
7.91843193	19.83703000	16.75466000
7.92343193	19.83703000	19.30296000
7.92843193	19.83703000	19.24192000
7.93343193	19.83703000	16.46474000
7.93843193	19.83703000	16.40370000
7.94343193	19.83703000	18.95199000
7.94843193	19.83703000	20.18799000
7.95343193	19.83703000	20.18799000
7.95843193	19.83703000	19.01303000
7.96343193	19.83703000	16.69362000
7.96843193	19.83703000	15.51866000
7.97343193	19.83703000	15.51866000
7.97843193	19.89807000	16.69362000
7.98343193	20.12696000	19.01303000
7.98843193	18.95199000	20.18799000
7.99343193	16.40370000	20.18799000
7.99843193	16.40370000	19.01303000
8.00343193	18.95199000	16.69362000
8.00843193	20.12696000	15.57970000
8.01343193	19.89807000	15.80859000
8.01843193	19.89807000	15.86962000
8.02343193	20.12696000	15.86962000
8.02843193	18.95199000	15.86962000
8.03343193	16.40370000	15.86962000
8.03843193	16.40370000	15.86962000
8.04343193	18.95199000	15.86962000
8.04843193	20.12696000	15.80859000
8.05343193	19.89807000	15.57970000
8.05843193	19.83703000	16.69362000
8.06343193	19.83703000	19.01303000
8.06843193	19.83703000	20.12696000
8.07343193	19.83703000	19.89807000
8.07843193	19.83703000	19.83703000
8.08343193	19.83703000	19.83703000
8.08843193	19.83703000	19.83703000
8.09343193	19.83703000	19.83703000
8.09843193	19.83703000	19.83703000
8.10343193	19.83703000	19.83703000
8.10843193	19.83703000	19.89807000
8.11343193	19.83703000	20.12696000
8.11843193	19.83703000	18.95199000
8.12343193	19.83703000	16.40370000
8.12843193	19.83703000	16.46474000
8.13343193	19.83703000	19.24192000
8.13843193	19.83703000	19.30296000
8.14343193	19.83703000	16.75466000
8.14843193	19.83703000	15.57970000
8.15343193	19.83703000	15.80859000
8.15843193	19.83703000	15.86962000
8.16343193	19.83703000	15.86962000
8.16843193	19.83703000	15.86962000
8.17343193	19.83703000	15.86962000
8.17843193	19.83703000	15.86962000
8.18343193	19.83703000	15.86962000
8.18843193	19.83703000	15.86962000
8.19343193	19.83703000	15.86962000
8.19843193	19.83703000	15.86962000
8.20343193	19.83703000	15.86962000
8.20843193	19.89807000	15.86962000
8.21343193	20.12696000	15.86962000
8.21843193	19.01303000	15.86962000
8.22343193	16.69362000	15.86962000
8.22843193	15.57970000	15.86962000
8.23343193	15.80859000	15.86962000
8.23843193	15.80859000	15.86962000
8.24343193	15.57970000	15.86962000
8.24843193	16.75466000	15.86962000
8.25343193	19.30296000	15.86962000
8.25843193	19.30296000	15.86962000
8.26343193	16.75466000	15.86962000
8.26843193	15.57970000	15.86962000
8.27343193	15.80859000	15.86962000
8.27843193	15.86962000	15.86962000
8.28343193	15.86962000	15.86962000
8.28843193	15.86962000	15.86962000
8.29343193	15.86962000	15.86962000
8.29843193	15.86962000	15.86962000
8.30343193	15.86962000	15.86962000
8.30843193	15.86962000	15.86962000
8.31343193	15.86962000	15.86962000
8.31843193	15.86962000	15.86962000
8.32343193	15.86962000	15.86962000
8.32843193	15.86962000	15.86962000
8.33343193	15.86962000	15.86962000
8.33843193	15.86962000	15.80859000
8.34343193	15.86962000	15.57970000
8.34843193	15.80859000	16.69362000
8.35343193	15.57970000	19.01303000
8.35843193	16.69362000	20.12696000
8.36343193	19.01303000	19.89807000
8.36843193	20.18799000	19.83703000
8.37343193	20.18799000	19.83703000
8.37843193	19.01303000	19.83703000
8.38343193	16.69362000	19.83703000
8.38843193	15.57970000	19.83703000
8.39343193	15.80859000	19.83703000
8.39843193	15.86962000	19.83703000
8.40343193	15.86962000	19.83703000
8.40843193	15.80859000	19.89807000
8.41343193	15.57970000	20.12696000
8.41843193	16.75466000	19.01303000
8.42343193	19.30296000	16.69362000
8.42843193	19.30296000	15.57970000
8.43343193	16.75466000	15.80859000
8.43843193	15.57970000	15.86962000
8.44343193	15.80859000	15.86962000
8.44843193	15.86962000	15.80859000
8.45343193	15.86962000	15.57970000
8.45843193	15.86962000	16.69362000
8.46343193	15.86962000	19.01303000
8.46843193	15.80859000	20.18799000
8.47343193	15.57970000	20.18799000
8.47843193	16.75466000	19.01303000
8.48343193	19.30296000	16.69362000
8.48843193	19.30296000	15.57970000
8.49343193	16.75466000	15.80859000
8.49843193	15.57970000	15.80859000
8.50343193	15.80859000	15.57970000
8.50843193	15.86962000	16.75466000
8.51343193	15.86962000	19.30296000
8.51843193	15.86962000	19.30296000
8.52343193	15.86962000	16.75466000
8.52843193	15.86962000	15.57970000
8.53343193	15.86962000	15.80859000
8.53843193	15.86962000	15.86962000
8.54343193	15.86962000	15.86962000
8.54843193	15.86962000	15.80859000
8.55343193	15.86962000	15.57970000
8.55843193	15.86962000	16.75466000
8.56343193	15.86962000	19.30296000
8.56843193	15.86962000	19.24192000
8.57343193	15.86962000	16.46474000
8.57843193	15.86962000	16.46474000
8.58343193	15.86962000	19.24192000
8.58843193	15.86962000	19.30296000
8.59343193	15.86962000	16.75466000
8.59843193	15.86962000	15.51866000
8.60343193	15.86962000	15.51866000
8.60843193	15.86962000	16.75466000
8.61343193	15.86962000	19.30296000
8.61843193	15.86962000	19.30296000
8.62343193	15.86962000	16.75466000
8.62843193	15.86962000	15.57970000
8.63343193	15.86962000	15.80859000
8.63843193	15.86962000	15.80859000
8.64343193	15.86962000	15.57970000
8.64843193	15.86962000	16.69362000
8.65343193	15.86962000	19.01303000
8.65843193	15.86962000	20.18799000
8.66343193	15.86962000	20.18799000
8.66843193	15.86962000	19.01303000
8.67343193	15.86962000	16.69362000
8.67843193	15.86962000	15.51866000
8.68343193	15.86962000	15.51866000
8.68843193	15.86962000	16.75466000
8.69343193	15.86962000	19.30296000
8.69843193	15.86962000	19.30296000
8.70343193	15.86962000	16.75466000
8.70843193	15.86962000	15.57970000
8.71343193	15.86962000	15.80859000
8.71843193	15.86962000	15.86962000
8.72343193	15.86962000	15.86962000
8.72843193	15.86962000	15.86962000
8.73343193	15.86962000	15.86962000
8.73843193	15.86962000	15.86962000
8.74343193	15.86962000	15.86962000
8.74843193	15.86962000	15.86962000
8.75343193	15.86962000	15.86962000
8.75843193	15.86962000	15.86962000
8.76343193	15.86962000	15.86962000
8.76843193	15.86962000	15.86962000
8.77343193	15.86962000	15.86962000
8.77843193	15.86962000	15.86962000
8.78343193	15.86962000	15.86962000
8.78843193	15.86962000	15.86962000
8.79343193	15.86962000	15.86962000
8.79843193	15.86962000	15.86962000
8.80343193	15.86962000	15.86962000
8.80843193	15.86962000	15.86962000
8.81343193	15.86962000	15.86962000
8.81843193	15.86962000	15.86962000
8.82343193	15.86962000	15.86962000
8.82843193	15.86962000	15.86962000
8.83343193	15.86962000	15.86962000
8.83843193	15.86962000	15.86962000
8.84343193	15.86962000	15.86962000
8.84843193	15.86962000	15.86962000
8.85343193	15.86962000	15.86962000
8.85843193	15.86962000	15.86962000
8.86343193	15.86962000	15.86962000
8.86843193	15.86962000	15.86962000
8.87343193	15.86962000	15.86962000
8.87843193	15.86962000	15.86962000
8.88343193	15.86962000	15.86962000
8.88843193	15.86962000	15.86962000
8.89343193	15.86962000	15.86962000
8.89843193	15.86962000	15.86962000
8.90343193	15.86962000	15.86962000
8.90843193	15.86962000	15.86962000
8.91343193	15.86962000	15.86962000
8.91843193	15.86962000	15.86962000
8.92343193	15.86962000	15.86962000
8.92843193	15.86962000	15.86962000
8.93343193	15.86962000	15.86962000
8.93843193	15.86962000	15.86962000
8.94343193	15.86962000	15.86962000
8.94843193	15.86962000	15.86962000
8.95343193	15.86962000	15.86962000
8.95843193	15.86962000	15.86962000
8.96343193	15.86962000	15.86962000
8.96843193	15.86962000	15.86962000
8.97343193	15.86962000	15.86962000
8.97843193	15.86962000	15.86962000
8.98343193	15.86962000	15.86962000
8.98843192	15.86962000	15.86962000
8.99343192	15.86962000	15.86962000
8.99843192	15.86962000	15.86962000
9.00343192	15.86962000	15.86962000
9.00843192	15.86962000	15.86962000
9.01343192	15.86962000	15.86962000
9.01843192	15.86962000	15.86962000
9.02343192	15.86962000	15.86962000
