Time	Channel A	Channel B
(us)	(mV)	(mV)

-1.01181994	0.00000000	3.17392500
-1.00681994	0.00000000	3.17392500
-1.00181994	0.00000000	3.19834000
-0.99681994	0.00000000	3.28989500
-0.99181994	0.00000000	2.84432500
-0.98681994	0.00000000	1.91656200
-0.98181994	0.00000000	1.47099200
-0.97681994	0.00000000	1.56254800
-0.97181994	0.00000000	1.56254800
-0.96681994	0.00000000	1.47099200
-0.96181994	0.00000000	1.94097700
-0.95681994	0.00000000	2.96029500
-0.95181994	0.00000000	2.96029500
-0.94681994	0.00000000	1.94097700
-0.94181994	0.00000000	1.47099200
-0.93681994	0.00000000	1.56254800
-0.93181994	0.00000000	1.56254800
-0.92681994	0.00000000	1.47099200
-0.92181994	0.00000000	1.91656200
-0.91681994	0.00000000	2.84432500
-0.91181994	0.00000000	3.31431000
-0.90681994	0.00000000	3.31431000
-0.90181994	0.00000000	2.81991000
-0.89681994	0.00000000	1.80059200
-0.89181995	0.00000000	1.82500700
-0.88681995	0.00000000	2.93588100
-0.88181995	0.00000000	2.93588100
-0.87681995	0.00000000	1.82500700
-0.87181995	0.00000000	1.82500700
-0.86681995	0.00000000	2.93588100
-0.86181995	0.00000000	2.96029500
-0.85681995	0.00000000	1.94097700
-0.85181995	0.00000000	1.47099200
-0.84681995	0.00000000	1.56254800
-0.84181995	0.00000000	1.61137700
-0.83681995	0.00000000	1.70293300
-0.83181995	0.00000000	1.23294800
-0.82681995	0.00000000	0.21362960
-0.82181995	0.00000000	0.21362960
-0.81681995	0.00000000	1.23294800
-0.81181995	0.00000000	1.72734800
-0.80681995	0.00000000	1.72734800
-0.80181995	0.00000000	1.25736300
-0.79681995	0.00000000	0.32959990
-0.79181995	0.00000000	-0.14038510
-0.78681995	0.00000000	-0.14038510
-0.78181995	0.00000000	0.32959990
-0.77681995	0.00000000	1.25736300
-0.77181995	0.00000000	1.70293300
-0.76681995	0.00000000	1.61137700
-0.76181995	0.00000000	1.56254800
-0.75681995	0.00000000	1.47099200
-0.75181995	0.00000000	1.91656200
-0.74681995	0.00000000	2.84432500
-0.74181995	0.00000000	3.28989500
-0.73681995	0.00000000	3.19834000
-0.73181995	0.00000000	3.17392500
-0.72681995	0.00000000	3.17392500
-0.72181995	0.00000000	3.14951000
-0.71681995	0.00000000	3.05795500
-0.71181995	0.00000000	3.50352500
-0.70681995	0.00000000	4.43128700
-0.70181995	0.00000000	4.90127200
-0.69681995	0.00000000	4.90127200
-0.69181995	0.00000000	4.40687300
-0.68681995	0.00000000	3.38755500
-0.68181995	0.00000000	3.38755500
-0.67681995	0.00000000	4.40687300
-0.67181995	0.00000000	4.90127200
-0.66681995	0.00000000	4.90127200
-0.66181995	0.00000000	4.43128700
-0.65681995	0.00000000	3.50352500
-0.65181995	0.00000000	3.03354000
-0.64681995	0.00000000	3.03354000
-0.64181995	0.00000000	3.52794000
-0.63681995	0.00000000	4.54725700
-0.63181995	0.00000000	4.52284300
-0.62681995	0.00000000	3.41196900
-0.62181995	0.00000000	3.41196900
-0.61681995	0.00000000	4.52284300
-0.61181995	0.00000000	4.52284300
-0.60681995	0.00000000	3.41196900
-0.60181995	0.00000000	3.41196900
-0.59681995	0.00000000	4.52284300
-0.59181995	0.00000000	4.52284300
-0.58681995	0.00000000	3.41196900
-0.58181995	0.00000000	3.41196900
-0.57681995	0.00000000	4.52284300
-0.57181995	0.00000000	4.54725700
-0.56681995	0.00000000	3.52794000
-0.56181995	0.00000000	3.05795500
-0.55681995	0.00000000	3.14951000
-0.55181995	0.00000000	3.17392500
-0.54681995	0.00000000	3.17392500
-0.54181995	0.00000000	3.19834000
-0.53681995	0.00000000	3.28989500
-0.53181995	0.00000000	2.84432500
-0.52681995	0.00000000	1.91656200
-0.52181995	0.00000000	1.47099200
-0.51681995	0.00000000	1.56254800
-0.51181995	0.00000000	1.58696200
-0.50681995	0.00000000	1.58696200
-0.50181995	0.00000000	1.56254800
-0.49681995	0.00000000	1.47099200
-0.49181995	0.00000000	1.94097700
-0.48681995	0.00000000	2.96029500
-0.48181995	0.00000000	2.93588100
-0.47681995	0.00000000	1.82500700
-0.47181995	0.00000000	1.77617700
-0.46681995	0.00000000	2.70394000
-0.46181995	0.00000000	3.64391000
-0.45681995	0.00000000	4.57167300
-0.45181995	0.00000000	4.54725700
-0.44681995	0.00000000	3.52794000
-0.44181995	0.00000000	3.05795500
-0.43681995	0.00000000	3.14951000
-0.43181995	0.00000000	3.17392500
-0.42681995	0.00000000	3.17392500
-0.42181995	0.00000000	3.19834000
-0.41681995	0.00000000	3.28989500
-0.41181995	0.00000000	2.81991000
-0.40681995	0.00000000	1.80059200
-0.40181995	0.00000000	1.82500700
-0.39681995	0.00000000	2.93588100
-0.39181995	0.00000000	2.96029500
-0.38681995	0.00000000	1.94097700
-0.38181995	0.00000000	1.44657700
-0.37681995	0.00000000	1.44657700
-0.37181995	0.00000000	1.89214800
-0.36681995	0.00000000	2.72835500
-0.36181995	0.00000000	3.66832500
-0.35681995	0.00000000	4.68764300
-0.35181995	0.00000000	4.19324400
-0.34681995	0.00000000	2.15460700
-0.34181995	0.00000000	1.68462200
-0.33681995	0.00000000	2.79549500
-0.33181995	0.00000000	3.31431000
-0.32681995	0.00000000	3.31431000
-0.32181995	0.00000000	2.81991000
-0.31681995	0.00000000	1.80059200
-0.31181995	0.00000000	1.80059200
-0.30681995	0.00000000	2.81991000
-0.30181995	0.00000000	3.28989500
-0.29681995	0.00000000	3.19834000
-0.29181995	0.00000000	3.19834000
-0.28681995	0.00000000	3.28989500
-0.28181995	0.00000000	2.84432500
-0.27681995	0.00000000	1.91656200
-0.27181995	0.00000000	1.47099200
-0.26681995	0.00000000	1.56254800
-0.26181995	0.00000000	1.58696200
-0.25681995	0.00000000	1.58696200
-0.25181995	0.00000000	1.58696200
-0.24681995	0.00000000	1.58696200
-0.24181995	0.00000000	1.61137700
-0.23681995	0.00000000	1.70293300
-0.23181995	0.00000000	1.23294800
-0.22681995	0.00000000	0.21362960
-0.22181995	0.00000000	0.18921480
-0.21681995	0.00000000	1.11697700
-0.21181995	0.00000000	2.05694700
-0.20681995	0.00000000	2.98471000
-0.20181995	0.00000000	2.96029500
-0.19681995	0.00000000	1.94097700
-0.19181995	0.00000000	1.47099200
-0.18681995	0.00000000	1.56254800
-0.18181995	0.00000000	1.61137700
-0.17681995	0.00000000	1.70293300
-0.17181995	0.00000000	1.23294800
-0.16681995	0.00000000	0.21362960
-0.16181995	0.00000000	0.21362960
-0.15681995	0.00000000	1.23294800
-0.15181995	0.00000000	1.70293300
-0.14681995	0.00000000	1.61137700
-0.14181995	0.00000000	1.61137700
-0.13681995	0.00000000	1.70293300
-0.13181995	-0.06103702	1.25736300
-0.12681995	-0.28992580	0.32959990
-0.12181995	0.70192570	-0.09155553
-0.11681995	2.56355500	0.09155553
-0.11181995	5.85955300	-0.32959990
-0.10681995	10.01007000	-1.25736300
-0.10181995	13.19925000	-1.65410300
-0.09681995	14.57259000	-1.37943700
-0.09181995	17.70074000	-2.27057700
-0.08681995	21.62236000	-4.21765800
-0.08181995	25.92547000	-4.63881300
-0.07681995	29.61821000	-3.43638400
-0.07181995	33.79925000	-3.36314000
-0.06681995	37.26310000	-4.29090200
-0.06181995	42.61909000	-5.20645800
-0.05681995	48.63124000	-6.04266500
-0.05181995	53.92620000	-6.46382000
-0.04681995	57.16116000	-6.37226500
-0.04181995	62.45613000	-6.37226500
-0.03681995	68.48353000	-6.46382000
-0.03181995	73.83952000	-6.01825000
-0.02681995	77.30338000	-5.09048700
-0.02181995	81.42339000	-4.66933200
-0.01681995	84.88723000	-4.85244300
-0.01181995	90.24323000	-4.43128700
-0.00681995	96.25537000	-3.50352500
-0.00181995	101.61140000	-3.03354000
0.00318005	105.07520000	-3.03354000
0.00818005	109.25630000	-3.52794000
0.01318005	112.94900000	-4.54725700
0.01818005	117.13000000	-4.54725700
0.02318005	120.59390000	-3.52794000
0.02818005	125.94990000	-3.05795500
0.03318005	131.96200000	-3.14951000
0.03818005	137.37910000	-3.17392500
0.04318005	141.08710000	-3.17392500
0.04818005	144.09310000	-3.17392500
0.05318005	145.23760000	-3.17392500
0.05818005	149.54070000	-3.19834000
0.06318005	156.01060000	-3.28989500
0.06818005	160.31370000	-2.81991000
0.07318005	161.45820000	-1.80059200
0.07818005	164.58630000	-1.82500700
0.08318005	168.73680000	-2.93588100
0.08818005	171.92600000	-2.93588100
0.09318005	173.29930000	-1.82500700
0.09818005	176.48850000	-1.80059200
0.10318005	180.63910000	-2.81991000
0.10818005	183.88930000	-3.28989500
0.11318005	185.49150000	-3.19834000
0.11818005	187.50570000	-3.14951000
0.12318005	189.10790000	-3.05795500
0.12818005	192.40390000	-3.47911000
0.13318005	196.81390000	-4.31531700
0.13818005	198.91960000	-5.20645800
0.14318005	198.23300000	-6.04266500
0.14818005	199.16380000	-6.43940500
0.15318005	201.25430000	-6.25629500
0.15818005	203.42110000	-6.67745000
0.16318005	205.28270000	-7.60521200
0.16818005	207.44960000	-8.05078300
0.17318005	209.54010000	-7.95922800
0.17818005	210.53190000	-7.93481200
0.18318005	210.07410000	-7.93481200
0.18818005	211.06600000	-7.95922800
0.19318005	213.15650000	-8.05078300
0.19818005	215.39960000	-7.60521200
0.20318005	217.49010000	-6.67745000
0.20818005	218.54300000	-6.25629500
0.21318005	218.31410000	-6.43940500
0.21818005	218.19210000	-6.01825000
0.22318005	217.96320000	-5.09048700
0.22818005	219.07710000	-4.66933200
0.23318005	221.39650000	-4.85244300
0.23818005	222.51040000	-4.43128700
0.24318005	222.28150000	-3.50352500
0.24818005	222.22050000	-3.08237000
0.25318005	222.22050000	-3.26548100
0.25818005	222.15950000	-2.79549500
0.26318005	221.93060000	-1.68462200
0.26818005	223.04450000	-2.13019200
0.27318005	225.36390000	-4.07727300
0.27818005	226.47780000	-4.99282800
0.28318005	226.24890000	-4.80971700
0.28818005	226.12690000	-4.76088700
0.29318005	225.89800000	-4.76088700
0.29818005	227.01190000	-4.73647300
0.30318005	229.33130000	-4.64491700
0.30818005	230.44530000	-5.06607200
0.31318005	230.21640000	-5.90228000
0.31818005	230.15530000	-6.81783500
0.32318005	230.15530000	-7.74559700
0.32818005	230.09430000	-7.69676800
0.33318005	229.86540000	-6.58589400
0.33818005	230.97930000	-6.58589400
0.34318005	233.29870000	-7.69676800
0.34818005	234.41270000	-7.72118300
0.35318005	234.18380000	-6.70186400
0.35818005	234.12270000	-6.23187900
0.36318005	234.12270000	-6.32343500
0.36818005	234.12270000	-6.37226500
0.37318005	234.12270000	-6.46382000
0.37818005	234.06170000	-6.01825000
0.38318005	233.83280000	-5.09048700
0.38818005	234.94670000	-4.64491700
0.39318005	237.26610000	-4.73647300
0.39818005	238.38010000	-4.78530200
0.40318005	238.15120000	-4.87685800
0.40818005	238.09010000	-4.43128700
0.41318005	238.09010000	-3.50352500
0.41818005	238.09010000	-3.05795500
0.42318005	238.09010000	-3.14951000
0.42818005	238.09010000	-3.19834000
0.43318005	238.09010000	-3.28989500
0.43818005	238.09010000	-2.84432500
0.44318005	238.09010000	-1.91656200
0.44818005	238.09010000	-1.47099200
0.45318005	238.09010000	-1.56254800
0.45818005	238.09010000	-1.58696200
0.46318005	238.09010000	-1.58696200
0.46818005	238.09010000	-1.58696200
0.47318005	238.09010000	-1.58696200
0.47818005	238.09010000	-1.58696200
0.48318005	238.09010000	-1.58696200
0.48818005	238.09010000	-1.58696200
0.49318005	238.09010000	-1.58696200
0.49818005	238.15120000	-1.58696200
0.50318005	238.38010000	-1.58696200
0.50818005	237.26610000	-1.58696200
0.51318005	234.94670000	-1.58696200
0.51818005	233.83280000	-1.58696200
0.52318005	234.06170000	-1.58696200
0.52818005	234.12270000	-1.58696200
0.53318005	234.12270000	-1.58696200
0.53818005	234.18380000	-1.61137700
0.54318005	234.41270000	-1.70293300
0.54818005	233.29870000	-1.23294800
0.55318005	230.97930000	-0.21362960
0.55818005	229.92640000	-0.21362960
0.56318005	230.38420000	-1.23294800
0.56818005	229.33130000	-1.72734800
0.57318005	227.01190000	-1.72734800
0.57818005	225.89800000	-1.23294800
0.58318005	226.12690000	-0.21362960
0.58818005	226.24890000	-0.21362960
0.59318005	226.47780000	-1.23294800
0.59818005	225.36390000	-1.70293300
0.60318005	223.04450000	-1.61137700
0.60818005	221.99160000	-1.61137700
0.61318005	222.44940000	-1.70293300
0.61818005	221.39650000	-1.25736300
0.62318005	219.07710000	-0.32959990
0.62818005	218.02420000	0.14038510
0.63318005	218.48200000	0.14038510
0.63818005	217.42910000	-0.30518510
0.64318005	215.10970000	-1.14139200
0.64818005	213.99580000	-2.08136200
0.65318005	214.22470000	-3.10068000
0.65818005	214.40780000	-2.60628100
0.66318005	214.86560000	-0.56764430
0.66818005	212.63770000	-0.12207400
0.67318005	207.98360000	-1.32450300
0.67818005	205.75580000	-1.37333300
0.68318005	206.21350000	-0.35401470
0.68818005	206.33560000	0.14038510
0.69318005	206.33560000	0.14038510
0.69818005	206.39670000	-0.32959990
0.70318005	206.62550000	-1.25736300
0.70818005	205.45060000	-1.70293300
0.71318005	202.90230000	-1.61137700
0.71818005	202.96330000	-1.61137700
0.72318005	205.74050000	-1.70293300
0.72818005	205.86260000	-1.25736300
0.73318005	203.54320000	-0.32959990
0.73818005	201.25430000	0.11597030
0.74318005	199.16380000	0.02441481
0.74818005	198.11090000	0.02441481
0.75318004	198.33980000	0.11597030
0.75818004	198.40080000	-0.35401470
0.76318004	198.40080000	-1.37333300
0.76818004	198.46190000	-1.37333300
0.77318004	198.69080000	-0.35401470
0.77818004	197.57680000	0.11597030
0.78318004	195.25740000	0.02441481
0.78818004	194.14350000	0.00000000
0.79318004	194.37240000	0.00000000
0.79818004	194.43340000	0.00000000
0.80318004	194.43340000	0.00000000
0.80818004	194.49440000	0.00000000
0.81318004	194.72330000	0.00000000
0.81818004	193.60940000	0.00000000
0.82318004	191.29000000	0.00000000
0.82818004	190.17610000	0.00000000
0.83318004	190.40500000	0.00000000
0.83818004	190.46600000	-0.02441481
0.84318004	190.46600000	-0.11597030
0.84818004	190.46600000	0.32959990
0.85318004	190.46600000	1.25736300
0.85818004	190.52700000	1.70293300
0.86318004	190.75590000	1.61137700
0.86818004	189.64200000	1.58696200
0.87318004	187.32260000	1.58696200
0.87818004	186.26970000	1.61137700
0.88318004	186.72750000	1.70293300
0.88818004	185.67460000	1.25736300
0.89318004	183.35520000	0.32959990
0.89818004	182.24130000	-0.14038510
0.90318004	182.47020000	-0.14038510
0.90818004	182.53120000	0.32959990
0.91318004	182.53120000	1.25736300
0.91818004	182.53120000	1.70293300
0.92318004	182.53120000	1.61137700
0.92818004	182.59220000	1.58696200
0.93318004	182.82110000	1.58696200
0.93818004	181.70720000	1.61137700
0.94318004	179.38780000	1.70293300
0.94818004	178.27390000	1.23294800
0.95318004	178.50280000	0.21362960
0.95818004	178.56380000	0.21362960
0.96318004	178.56380000	1.23294800
0.96818004	178.56380000	1.70293300
0.97318004	178.56380000	1.61137700
0.97818004	178.62480000	1.58696200
0.98318004	178.85370000	1.58696200
0.98818004	177.73980000	1.61137700
0.99318004	175.42040000	1.70293300
0.99818004	174.30650000	1.23294800
1.00318004	174.53530000	0.21362960
1.00818004	174.65740000	0.21362960
1.01318004	174.88630000	1.23294800
1.01818004	173.77240000	1.67851800
1.02318004	171.45300000	1.49540700
1.02818004	170.33910000	1.91656200
1.03318004	170.56790000	2.84432500
1.03818004	170.62900000	3.28989500
1.04318004	170.62900000	3.19834000
1.04818004	170.62900000	3.19834000
1.05318004	170.62900000	3.28989500
1.05818004	170.69000000	2.84432500
1.06318004	170.91890000	1.91656200
1.06818004	169.80500000	1.47099200
1.07318004	167.48560000	1.56254800
1.07818004	166.37160000	1.58696200
1.08318004	166.60050000	1.58696200
1.08818004	166.66160000	1.58696200
1.09318004	166.66160000	1.58696200
1.09818004	166.66160000	1.56254800
1.10318004	166.66160000	1.47099200
1.10818004	166.72260000	1.94097700
1.11318004	166.95150000	2.96029500
1.11818004	165.83760000	2.96029500
1.12318004	163.51820000	1.94097700
1.12818004	162.40430000	1.47099200
1.13318004	162.63310000	1.56254800
1.13818004	162.69420000	1.58696200
1.14318004	162.69420000	1.58696200
1.14818004	162.69420000	1.58696200
1.15318004	162.69420000	1.58696200
1.15818004	162.75520000	1.61137700
1.16318004	162.98410000	1.70293300
1.16818004	161.87020000	1.25736300
1.17318004	159.55080000	0.32959990
1.17818004	158.43680000	-0.11597030
1.18318004	158.66570000	-0.02441481
1.18818004	158.72680000	0.00000000
1.19318004	158.72680000	0.00000000
1.19818004	158.72680000	0.00000000
1.20318004	158.72680000	0.00000000
1.20818004	158.78780000	0.00000000
1.21318004	159.01670000	0.00000000
1.21818004	157.90280000	0.00000000
1.22318004	155.58340000	0.00000000
1.22818004	154.46940000	0.00000000
1.23318004	154.69830000	0.00000000
1.23818004	154.82040000	0.00000000
1.24318004	155.04930000	0.00000000
1.24818004	153.93530000	0.00000000
1.25318004	151.61590000	0.00000000
1.25818004	150.50200000	0.00000000
1.26318004	150.73090000	0.00000000
1.26818004	150.79190000	-0.02441481
1.27318004	150.79190000	-0.11597030
1.27818004	150.79190000	0.30518510
1.28318004	150.79190000	1.14139200
1.28818004	150.79190000	2.08136200
1.29318004	150.79190000	3.10068000
1.29818004	150.85300000	2.63069600
1.30318004	151.08190000	0.68361460
1.30818004	149.96790000	-0.25635550
1.31318004	147.64850000	-0.16479990
1.31818004	146.53460000	0.32959990
1.32318004	146.76350000	1.25736300
1.32818004	146.82450000	1.70293300
1.33318004	146.82450000	1.61137700
1.33818004	146.82450000	1.58696200
1.34318004	146.82450000	1.58696200
1.34818004	146.88560000	1.58696200
1.35318004	147.11450000	1.58696200
1.35818004	146.00050000	1.58696200
1.36318004	143.68110000	1.58696200
1.36818004	142.56720000	1.58696200
1.37318004	142.79610000	1.58696200
1.37818004	142.85710000	1.58696200
1.38318004	142.85710000	1.58696200
1.38818004	142.85710000	1.58696200
1.39318004	142.85710000	1.58696200
1.39818004	142.85710000	1.58696200
1.40318004	142.85710000	1.58696200
1.40818004	142.91820000	1.56254800
1.41318004	143.14710000	1.47099200
1.41818004	141.97210000	1.94097700
1.42318004	139.40860000	2.96029500
1.42818004	139.46960000	2.96029500
1.43318004	142.26200000	1.94097700
1.43818004	142.32310000	1.47099200
1.44318004	139.75950000	1.56254800
1.44818004	138.58450000	1.56254800
1.45318004	138.81340000	1.47099200
1.45818004	138.87450000	1.91656200
1.46318004	138.87450000	2.84432500
1.46818004	138.93550000	3.31431000
1.47318004	139.16440000	3.31431000
1.47818004	138.05050000	2.84432500
1.48318004	135.73110000	1.91656200
1.48818004	134.61710000	1.47099200
1.49318004	134.84600000	1.56254800
1.49818004	134.90710000	1.56254800
1.50318004	134.90710000	1.47099200
1.50818004	134.90710000	1.94097700
1.51318004	134.90710000	2.96029500
1.51818004	134.96810000	2.93588100
1.52318004	135.19700000	1.82500700
1.52818004	134.08310000	1.82500700
1.53318004	131.76370000	2.93588100
1.53818004	130.64970000	2.96029500
1.54318004	130.87860000	1.94097700
1.54818004	130.93970000	1.47099200
1.55318004	130.93970000	1.56254800
1.55818004	130.93970000	1.58696200
1.56318004	130.93970000	1.58696200
1.56818004	130.93970000	1.61137700
1.57318004	130.93970000	1.70293300
1.57818004	131.00070000	1.25736300
1.58318004	131.22960000	0.32959990
1.58818004	130.11560000	-0.11597030
1.59318004	127.79630000	-0.02441481
1.59818004	126.68230000	-0.02441481
1.60318004	126.91120000	-0.11597030
1.60818004	126.97230000	0.32959990
1.61318004	126.97230000	1.25736300
1.61818004	126.97230000	1.70293300
1.62318004	126.97230000	1.61137700
1.62818004	127.03330000	1.58696200
1.63318004	127.26220000	1.58696200
1.63818004	126.08720000	1.58696200
1.64318004	123.53890000	1.58696200
1.64818004	123.60000000	1.61137700
1.65318004	126.37710000	1.70293300
1.65818004	126.43820000	1.23294800
1.66318004	123.88990000	0.21362960
1.66818004	122.71490000	0.23804440
1.67318004	122.94380000	1.34891800
1.67818004	123.00480000	1.37333300
1.68318004	123.00480000	0.35401470
1.68818004	123.00480000	-0.11597030
1.69318004	123.00480000	-0.02441481
1.69818004	123.06590000	-0.02441481
1.70318004	123.29480000	-0.11597030
1.70818004	122.18080000	0.35401470
1.71318004	119.86140000	1.37333300
1.71818004	118.74750000	1.34891800
1.72318004	118.97640000	0.23804440
1.72818004	119.03740000	0.23804440
1.73318004	119.03740000	1.34891800
1.73818004	119.03740000	1.34891800
1.74318004	119.03740000	0.23804440
1.74818004	119.03740000	0.23804440
1.75318004	119.03740000	1.34891800
1.75818004	119.09850000	1.34891800
1.76318004	119.32740000	0.23804440
1.76818004	118.15240000	0.21362960
1.77318004	115.60410000	1.23294800
1.77818004	115.66510000	1.67851800
1.78318004	118.44230000	1.49540700
1.78818004	118.50340000	1.94097700
1.79318004	115.95510000	2.96029500
1.79818004	114.78010000	2.96029500
1.80318004	115.00900000	1.94097700
1.80818004	115.13110000	1.47099200
1.81318004	115.36000000	1.56254800
1.81818004	114.24600000	1.61137700
1.82318004	111.92660000	1.70293300
1.82818004	110.81270000	1.25736300
1.83318004	111.04160000	0.32959990
1.83818004	111.10260000	-0.11597030
1.84318004	111.10260000	-0.02441481
1.84818004	111.10260000	0.00000000
1.85318004	111.10260000	0.00000000
1.85818004	111.10260000	0.00000000
1.86318004	111.10260000	0.00000000
1.86818004	111.10260000	0.00000000
1.87318004	111.10260000	0.00000000
1.87818004	111.10260000	0.00000000
1.88318004	111.10260000	0.00000000
1.88818004	111.10260000	-0.02441481
1.89318004	111.10260000	-0.11597030
1.89818004	111.16370000	0.32959990
1.90318004	111.39250000	1.25736300
1.90818004	110.27860000	1.70293300
1.91318004	107.95920000	1.61137700
1.91818004	106.84530000	1.58696200
1.92318004	107.07420000	1.58696200
1.92818004	107.13520000	1.58696200
1.93318004	107.13520000	1.58696200
1.93818004	107.13520000	1.61137700
1.94318004	107.13520000	1.70293300
1.94818004	107.13520000	1.23294800
1.95318004	107.13520000	0.21362960
1.95818004	107.19630000	0.21362960
1.96318004	107.42510000	1.23294800
1.96818004	106.31120000	1.70293300
1.97318004	103.99180000	1.61137700
1.97818004	102.87790000	1.61137700
1.98318004	103.10680000	1.70293300
1.98818004	103.16780000	1.25736300
1.99318004	103.16780000	0.32959990
1.99818004	103.16780000	-0.11597030
2.00318004	103.16780000	-0.02441481
2.00818004	103.16780000	-0.02441481
2.01318004	103.16780000	-0.11597030
2.01818004	103.16780000	0.30518510
2.02318004	103.16780000	1.14139200
2.02818004	103.22890000	2.05694700
2.03318004	103.45770000	2.98471000
2.03818004	102.34380000	2.96029500
2.04318004	100.02440000	1.94097700
2.04818004	98.91048000	1.47099200
2.05318004	99.13937000	1.56254800
2.05818004	99.20041000	1.58696200
2.06318004	99.20041000	1.58696200
2.06818004	99.20041000	1.56254800
2.07318004	99.20041000	1.47099200
2.07818004	99.20041000	1.94097700
2.08318004	99.20041000	2.96029500
2.08818004	99.26145000	2.96029500
2.09318004	99.49034000	1.94097700
2.09818004	98.31538000	1.47099200
2.10318004	95.76707000	1.56254800
2.10818004	95.76707000	1.58696200
2.11318004	98.31538000	1.58696200
2.11818004	99.55138000	1.58696200
2.12318004	99.55138000	1.58696200
2.12818004	98.37641000	1.58696200
2.13318004	96.05700000	1.58696200
2.13818004	94.94308000	1.58696200
2.14318004	95.17197000	1.58696200
2.14818004	95.23300000	1.56254800
2.15318004	95.23300000	1.47099200
2.15818004	95.23300000	1.91656200
2.16318004	95.23300000	2.84432500
2.16818004	95.23300000	3.28989500
2.17318004	95.23300000	3.19834000
2.17818004	95.23300000	3.17392500
2.18318004	95.23300000	3.17392500
2.18818004	95.23300000	3.19834000
2.19318004	95.23300000	3.28989500
2.19818004	95.29404000	2.81991000
2.20318004	95.52293000	1.80059200
2.20818004	94.40900000	1.80059200
2.21318004	92.08959000	2.81991000
2.21818004	90.97568000	3.31431000
2.22318004	91.20457000	3.31431000
2.22818004	91.26560000	2.81991000
2.23318004	91.26560000	1.80059200
2.23818004	91.26560000	1.82500700
2.24318004	91.26560000	2.93588100
2.24818004	91.26560000	2.96029500
2.25318004	91.26560000	1.94097700
2.25818004	91.26560000	1.47099200
2.26318004	91.26560000	1.56254800
2.26818004	91.26560000	1.58696200
2.27318004	91.26560000	1.58696200
2.27818004	91.32664000	1.58696200
2.28318004	91.55552000	1.58696200
2.28818004	90.44160000	1.58696200
2.29318004	88.12219000	1.58696200
2.29818004	86.94723000	1.58696200
2.30318004	86.94723000	1.58696200
2.30818004	88.18323000	1.58696200
2.31318004	90.73153000	1.58696200
2.31818004	90.73153000	1.58696200
2.32318004	88.18323000	1.58696200
2.32818004	87.00826000	1.58696200
2.33318004	87.23715000	1.58696200
2.33818004	87.29819000	1.58696200
2.34318004	87.29819000	1.58696200
2.34818004	87.29819000	1.56254800
2.35318004	87.29819000	1.47099200
2.35818004	87.29819000	1.91656200
2.36318004	87.29819000	2.84432500
2.36818004	87.35923000	3.28989500
2.37318004	87.58812000	3.19834000
2.37818004	86.47419000	3.19834000
2.38318004	84.15479000	3.28989500
2.38818004	83.04086000	2.81991000
2.39318004	83.26974000	1.80059200
2.39818004	83.33078000	1.82500700
2.40318003	83.33078000	2.93588100
2.40818003	83.33078000	2.93588100
2.41318003	83.33078000	1.82500700
2.41818003	83.33078000	1.80059200
2.42318003	83.33078000	2.81991000
2.42818003	83.33078000	3.31431000
2.43318003	83.33078000	3.31431000
2.43818003	83.39182000	2.84432500
2.44318003	83.62070000	1.91656200
2.44818003	82.50678000	1.47099200
2.45318003	80.18738000	1.56254800
2.45818003	79.07346000	1.58696200
2.46318003	79.30235000	1.58696200
2.46818003	79.36338000	1.56254800
2.47318003	79.36338000	1.47099200
2.47818003	79.36338000	1.91656200
2.48318003	79.36338000	2.84432500
2.48818003	79.36338000	3.31431000
2.49318003	79.36338000	3.31431000
2.49818003	79.36338000	2.84432500
2.50318003	79.36338000	1.91656200
2.50818003	79.36338000	1.47099200
2.51318003	79.36338000	1.56254800
2.51818003	79.36338000	1.58696200
2.52318003	79.36338000	1.58696200
2.52818003	79.36338000	1.58696200
2.53318003	79.36338000	1.58696200
2.53818003	79.36338000	1.58696200
2.54318003	79.36338000	1.58696200
2.54818003	79.42442000	1.58696200
2.55318003	79.65331000	1.58696200
2.55818003	78.53938000	1.58696200
2.56318003	76.21997000	1.58696200
2.56818003	75.10605000	1.58696200
2.57318003	75.33494000	1.58696200
2.57818003	75.39597000	1.58696200
2.58318003	75.39597000	1.58696200
2.58818003	75.39597000	1.58696200
2.59318003	75.39597000	1.58696200
2.59818003	75.39597000	1.56254800
2.60318003	75.39597000	1.47099200
2.60818003	75.39597000	1.94097700
2.61318003	75.39597000	2.96029500
2.61818003	75.39597000	2.98471000
2.62318003	75.39597000	2.05694700
2.62818003	75.39597000	1.11697700
2.63318003	75.39597000	0.18921480
2.63818003	75.39597000	0.21362960
2.64318003	75.39597000	1.23294800
2.64818003	75.45701000	1.70293300
2.65318003	75.68590000	1.61137700
2.65818003	74.57197000	1.58696200
2.66318003	72.25256000	1.58696200
2.66818003	71.13864000	1.56254800
2.67318003	71.36753000	1.47099200
2.67818003	71.42857000	1.94097700
2.68318003	71.42857000	2.96029500
2.68818003	71.42857000	2.96029500
2.69318003	71.42857000	1.94097700
2.69818003	71.42857000	1.44657700
2.70318003	71.42857000	1.44657700
2.70818003	71.42857000	1.91656200
2.71318003	71.42857000	2.84432500
2.71818003	71.42857000	3.26548100
2.72318003	71.42857000	3.08237000
2.72818003	71.42857000	3.50352500
2.73318003	71.42857000	4.43128700
2.73818003	71.42857000	4.90127200
2.74318003	71.42857000	4.90127200
2.74818003	71.42857000	4.43128700
2.75318003	71.42857000	3.50352500
2.75818003	71.48961000	3.05795500
2.76318003	71.71850000	3.14951000
2.76818003	70.60457000	3.14951000
2.77318003	68.26991000	3.05795500
2.77818003	67.15598000	3.52794000
2.78318003	67.38486000	4.54725700
2.78818003	67.44590000	4.52284300
2.79318003	67.44590000	3.41196900
2.79818003	67.44590000	3.41196900
2.80318003	67.44590000	4.52284300
2.80818003	67.44590000	4.54725700
2.81318003	67.44590000	3.52794000
2.81818003	67.44590000	3.08237000
2.82318003	67.44590000	3.26548100
2.82818003	67.44590000	2.84432500
2.83318003	67.44590000	1.91656200
2.83818003	67.44590000	1.44657700
2.84318003	67.44590000	1.44657700
2.84818003	67.44590000	1.94097700
2.85318003	67.44590000	2.96029500
2.85818003	67.50694000	2.96029500
2.86318003	67.73582000	1.94097700
2.86818003	66.56087000	1.47099200
2.87318003	64.01257000	1.56254800
2.87818003	64.07360000	1.56254800
2.88318003	66.85079000	1.47099200
2.88818003	66.91183000	1.94097700
2.89318003	64.36353000	2.96029500
2.89818003	63.18857000	2.96029500
2.90318003	63.41746000	1.94097700
2.90818003	63.47850000	1.47099200
2.91318003	63.47850000	1.56254800
2.91818003	63.47850000	1.58696200
2.92318003	63.47850000	1.58696200
2.92818003	63.47850000	1.61137700
2.93318003	63.47850000	1.70293300
2.93818003	63.47850000	1.23294800
2.94318003	63.47850000	0.21362960
2.94818003	63.47850000	0.21362960
2.95318003	63.47850000	1.23294800
2.95818003	63.47850000	1.70293300
2.96318003	63.47850000	1.61137700
2.96818003	63.47850000	1.56254800
2.97318003	63.47850000	1.47099200
2.97818003	63.53953000	1.94097700
2.98318003	63.76842000	2.96029500
2.98818003	62.65450000	2.96029500
2.99318003	60.33509000	1.94097700
2.99818003	59.16013000	1.47099200
3.00318003	59.16013000	1.56254800
3.00818003	60.39613000	1.58696200
3.01318003	62.94442000	1.58696200
3.01818003	62.94442000	1.58696200
3.02318003	60.39613000	1.58696200
3.02818003	59.22116000	1.58696200
3.03318003	59.45005000	1.58696200
3.03818003	59.51109000	1.61137700
3.04318003	59.51109000	1.70293300
3.04818003	59.51109000	1.23294800
3.05318003	59.51109000	0.21362960
3.05818003	59.51109000	0.21362960
3.06318003	59.51109000	1.23294800
3.06818003	59.51109000	1.70293300
3.07318003	59.51109000	1.61137700
3.07818003	59.51109000	1.58696200
3.08318003	59.51109000	1.58696200
3.08818003	59.51109000	1.58696200
3.09318003	59.51109000	1.58696200
3.09818003	59.51109000	1.58696200
3.10318003	59.51109000	1.58696200
3.10818003	59.51109000	1.58696200
3.11318003	59.51109000	1.58696200
3.11818003	59.51109000	1.58696200
3.12318003	59.51109000	1.58696200
3.12818003	59.57213000	1.58696200
3.13318003	59.80102000	1.58696200
3.13818003	58.62605000	1.58696200
3.14318003	56.07775000	1.58696200
3.14818003	56.13879000	1.58696200
3.15318003	58.91598000	1.58696200
3.15818003	58.97702000	1.61137700
3.16318003	56.42872000	1.70293300
3.16818003	55.25376000	1.25736300
3.17318003	55.48264000	0.32959990
3.17818003	55.54368000	-0.11597030
3.18318003	55.54368000	-0.02441481
3.18818003	55.54368000	0.00000000
3.19318003	55.54368000	0.00000000
3.19818003	55.54368000	0.02441481
3.20318003	55.54368000	0.11597030
3.20818003	55.54368000	-0.35401470
3.21318003	55.54368000	-1.37333300
3.21818003	55.54368000	-1.34891800
3.22318003	55.54368000	-0.23804440
3.22818003	55.54368000	-0.23804440
3.23318003	55.54368000	-1.34891800
3.23818003	55.54368000	-1.34891800
3.24318003	55.54368000	-0.23804440
3.24818003	55.54368000	-0.21362960
3.25318003	55.54368000	-1.23294800
3.25818003	55.60472000	-1.75176200
3.26318003	55.83361000	-1.84331800
3.26818003	54.71968000	-0.90334780
3.27318003	52.40028000	1.04373300
3.27818003	51.28635000	1.51371800
3.28318003	51.51524000	0.49439980
3.28818003	51.57627000	-0.44557020
3.29318003	51.57627000	-1.28177700
3.29818003	51.57627000	-1.72734800
3.30318003	51.57627000	-1.72734800
3.30818003	51.57627000	-1.28177700
3.31318003	51.57627000	-0.44557020
3.31818003	51.57627000	0.44557020
3.32318003	51.57627000	1.28177700
3.32818003	51.57627000	1.72734800
3.33318003	51.57627000	1.72734800
3.33818003	51.57627000	1.25736300
3.34318003	51.57627000	0.32959990
3.34818003	51.57627000	-0.14038510
3.35318003	51.57627000	-0.14038510
3.35818003	51.57627000	0.32959990
3.36318003	51.57627000	1.25736300
3.36818003	51.57627000	1.67851800
3.37318003	51.57627000	1.49540700
3.37818003	51.57627000	1.91656200
3.38318003	51.57627000	2.84432500
3.38818003	51.57627000	3.28989500
3.39318003	51.57627000	3.19834000
3.39818003	51.57627000	3.19834000
3.40318003	51.57627000	3.28989500
3.40818003	51.63731000	2.81991000
3.41318003	51.86620000	1.80059200
3.41818003	50.75228000	1.82500700
3.42318003	48.43287000	2.93588100
3.42818003	47.31895000	2.93588100
3.43318003	47.54784000	1.82500700
3.43818003	47.60887000	1.82500700
3.44318003	47.60887000	2.93588100
3.44818003	47.60887000	2.96029500
3.45318003	47.60887000	1.94097700
3.45818003	47.60887000	1.49540700
3.46318003	47.60887000	1.67851800
3.46818003	47.60887000	1.25736300
3.47318003	47.60887000	0.32959990
3.47818003	47.60887000	-0.14038510
3.48318003	47.60887000	-0.14038510
3.48818003	47.60887000	0.32959990
3.49318003	47.60887000	1.25736300
3.49818003	47.60887000	1.70293300
3.50318003	47.60887000	1.61137700
3.50818003	47.60887000	1.58696200
3.51318003	47.60887000	1.58696200
3.51818003	47.60887000	1.61137700
3.52318003	47.60887000	1.70293300
3.52818003	47.60887000	1.25736300
3.53318003	47.60887000	0.32959990
3.53818003	47.60887000	-0.14038510
3.54318003	47.60887000	-0.14038510
3.54818003	47.60887000	0.32959990
3.55318003	47.60887000	1.25736300
3.55818003	47.60887000	1.70293300
3.56318003	47.60887000	1.61137700
3.56818003	47.66991000	1.58696200
3.57318003	47.89880000	1.58696200
3.57818003	46.72383000	1.58696200
3.58318003	44.17554000	1.58696200
3.58818003	44.23658000	1.61137700
3.59318003	47.01376000	1.70293300
3.59818003	47.07480000	1.23294800
3.60318003	44.52650000	0.21362960
3.60818003	43.35154000	0.23804440
3.61318003	43.58043000	1.34891800
3.61818003	43.64147000	1.34891800
3.62318003	43.64147000	0.23804440
3.62818003	43.64147000	0.21362960
3.63318003	43.64147000	1.23294800
3.63818003	43.64147000	1.72734800
3.64318003	43.64147000	1.72734800
3.64818003	43.64147000	1.23294800
3.65318003	43.64147000	0.21362960
3.65818003	43.64147000	0.21362960
3.66318003	43.64147000	1.23294800
3.66818003	43.64147000	1.70293300
3.67318003	43.64147000	1.61137700
3.67818003	43.64147000	1.58696200
3.68318003	43.64147000	1.58696200
3.68818003	43.64147000	1.58696200
3.69318003	43.64147000	1.58696200
3.69818003	43.64147000	1.58696200
3.70318003	43.64147000	1.58696200
3.70818003	43.64147000	1.61137700
3.71318003	43.64147000	1.70293300
3.71818003	43.64147000	1.23294800
3.72318003	43.64147000	0.21362960
3.72818003	43.64147000	0.21362960
3.73318003	43.64147000	1.23294800
3.73818003	43.70250000	1.70293300
3.74318003	43.93139000	1.61137700
3.74818003	42.81747000	1.58696200
3.75318003	40.49806000	1.58696200
3.75818003	39.38414000	1.58696200
3.76318003	39.61302000	1.58696200
3.76818003	39.67406000	1.58696200
3.77318003	39.67406000	1.58696200
3.77818003	39.67406000	1.58696200
3.78318003	39.67406000	1.58696200
3.78818003	39.67406000	1.56254800
3.79318003	39.67406000	1.47099200
3.79818003	39.67406000	1.91656200
3.80318003	39.67406000	2.84432500
3.80818003	39.67406000	3.28989500
3.81318003	39.67406000	3.19834000
3.81818003	39.67406000	3.19834000
3.82318003	39.67406000	3.28989500
3.82818003	39.67406000	2.84432500
3.83318003	39.67406000	1.91656200
3.83818003	39.67406000	1.49540700
3.84318003	39.67406000	1.67851800
3.84818003	39.67406000	1.25736300
3.85318003	39.67406000	0.32959990
3.85818003	39.67406000	-0.14038510
3.86318003	39.67406000	-0.14038510
3.86818003	39.67406000	0.32959990
3.87318003	39.67406000	1.25736300
3.87818003	39.67406000	1.72734800
3.88318003	39.67406000	1.72734800
3.88818003	39.67406000	1.23294800
3.89318003	39.67406000	0.21362960
3.89818003	39.67406000	0.21362960
3.90318003	39.67406000	1.23294800
3.90818003	39.67406000	1.70293300
3.91318003	39.67406000	1.61137700
3.91818003	39.67406000	1.58696200
3.92318003	39.67406000	1.58696200
3.92818003	39.67406000	1.58696200
3.93318003	39.67406000	1.58696200
3.93818003	39.67406000	1.58696200
3.94318003	39.67406000	1.58696200
3.94818003	39.67406000	1.58696200
3.95318003	39.67406000	1.58696200
3.95818003	39.67406000	1.56254800
3.96318003	39.67406000	1.47099200
3.96818003	39.73510000	1.91656200
3.97318003	39.96399000	2.84432500
3.97818003	38.85006000	3.28989500
3.98318003	36.53065000	3.19834000
3.98818003	35.41673000	3.19834000
3.99318003	35.64562000	3.28989500
3.99818003	35.70665000	2.84432500
4.00318003	35.70665000	1.91656200
4.00818003	35.70665000	1.47099200
4.01318003	35.70665000	1.56254800
4.01818003	35.70665000	1.58696200
4.02318003	35.70665000	1.58696200
4.02818003	35.70665000	1.58696200
4.03318003	35.70665000	1.58696200
4.03818003	35.70665000	1.58696200
4.04318003	35.70665000	1.58696200
4.04818002	35.70665000	1.61137700
4.05318002	35.70665000	1.70293300
4.05818002	35.70665000	1.25736300
4.06318002	35.70665000	0.32959990
4.06818002	35.70665000	-0.11597030
4.07318002	35.70665000	-0.02441481
4.07818002	35.70665000	-0.02441481
4.08318002	35.70665000	-0.11597030
4.08818002	35.70665000	0.32959990
4.09318002	35.70665000	1.25736300
4.09818002	35.70665000	1.72734800
4.10318002	35.70665000	1.72734800
4.10818002	35.70665000	1.25736300
4.11318002	35.70665000	0.32959990
4.11818002	35.70665000	-0.11597030
4.12318002	35.70665000	-0.02441481
4.12818002	35.70665000	-0.02441481
4.13318002	35.70665000	-0.11597030
4.13818002	35.70665000	0.32959990
4.14318002	35.70665000	1.25736300
4.14818002	35.70665000	1.70293300
4.15318002	35.70665000	1.61137700
4.15818002	35.70665000	1.58696200
4.16318002	35.70665000	1.58696200
4.16818002	35.76769000	1.58696200
4.17318002	35.99658000	1.58696200
4.17818002	34.88266000	1.61137700
4.18318002	32.56325000	1.70293300
4.18818002	31.44932000	1.23294800
4.19318002	31.67821000	0.21362960
4.19818002	31.73925000	0.21362960
4.20318002	31.73925000	1.23294800
4.20818002	31.73925000	1.70293300
4.21318002	31.73925000	1.61137700
4.21818002	31.73925000	1.58696200
4.22318002	31.73925000	1.58696200
4.22818002	31.73925000	1.58696200
4.23318002	31.73925000	1.58696200
4.23818002	31.73925000	1.61137700
4.24318002	31.73925000	1.70293300
4.24818002	31.73925000	1.25736300
4.25318002	31.73925000	0.32959990
4.25818002	31.73925000	-0.11597030
4.26318002	31.73925000	-0.02441481
4.26818002	31.73925000	-0.02441481
4.27318002	31.73925000	-0.11597030
4.27818002	31.73925000	0.32959990
4.28318002	31.73925000	1.25736300
4.28818002	31.73925000	1.75176200
4.29318002	31.73925000	1.84331800
4.29818002	31.73925000	0.90334780
4.30318002	31.73925000	-1.04373300
4.30818002	31.73925000	-1.48930300
4.31318002	31.73925000	-0.37842950
4.31818002	31.73925000	0.11597030
4.32318002	31.73925000	0.02441481
4.32818002	31.73925000	0.00000000
4.33318002	31.73925000	0.00000000
4.33818002	31.73925000	0.02441481
4.34318002	31.73925000	0.11597030
4.34818002	31.73925000	-0.35401470
4.35318002	31.73925000	-1.37333300
4.35818002	31.73925000	-1.37333300
4.36318002	31.73925000	-0.35401470
4.36818002	31.73925000	0.11597030
4.37318002	31.73925000	0.02441481
4.37818002	31.73925000	0.00000000
4.38318002	31.73925000	0.00000000
4.38818002	31.73925000	-0.02441481
4.39318002	31.73925000	-0.11597030
4.39818002	31.73925000	0.35401470
4.40318002	31.73925000	1.37333300
4.40818002	31.73925000	1.34891800
4.41318002	31.73925000	0.23804440
4.41818002	31.73925000	0.21362960
4.42318002	31.73925000	1.23294800
4.42818002	31.80028000	1.70293300
4.43318002	32.02917000	1.61137700
4.43818002	30.91525000	1.58696200
4.44318002	28.59584000	1.58696200
4.44818002	27.42088000	1.58696200
4.45318002	27.42088000	1.58696200
4.45818002	28.59584000	1.56254800
4.46318002	30.91525000	1.47099200
4.46818002	32.09021000	1.94097700
4.47318002	32.09021000	2.96029500
4.47818002	30.91525000	2.96029500
4.48318002	28.59584000	1.94097700
4.48818002	27.48192000	1.47099200
4.49318002	27.71080000	1.56254800
4.49818002	27.77184000	1.58696200
4.50318002	27.77184000	1.58696200
4.50818002	27.77184000	1.58696200
4.51318002	27.77184000	1.58696200
4.51818002	27.77184000	1.61137700
4.52318002	27.77184000	1.70293300
4.52818002	27.77184000	1.25736300
4.53318002	27.77184000	0.32959990
4.53818002	27.77184000	-0.11597030
4.54318002	27.77184000	-0.02441481
4.54818002	27.77184000	-0.02441481
4.55318002	27.77184000	-0.11597030
4.55818002	27.77184000	0.32959990
4.56318002	27.77184000	1.25736300
4.56818002	27.77184000	1.70293300
4.57318002	27.77184000	1.61137700
4.57818002	27.77184000	1.58696200
4.58318002	27.77184000	1.58696200
4.58818002	27.77184000	1.58696200
4.59318002	27.77184000	1.58696200
4.59818002	27.77184000	1.58696200
4.60318002	27.77184000	1.58696200
4.60818002	27.77184000	1.58696200
4.61318002	27.77184000	1.58696200
4.61818002	27.77184000	1.61137700
4.62318002	27.77184000	1.70293300
4.62818002	27.77184000	1.23294800
4.63318002	27.77184000	0.21362960
4.63818002	27.77184000	0.23804440
4.64318002	27.77184000	1.34891800
4.64818002	27.77184000	1.37333300
4.65318002	27.77184000	0.35401470
4.65818002	27.77184000	-0.11597030
4.66318002	27.77184000	-0.02441481
4.66818002	27.77184000	0.00000000
4.67318002	27.77184000	0.00000000
4.67818002	27.77184000	0.00000000
4.68318002	27.77184000	0.00000000
4.68818002	27.83288000	0.00000000
4.69318002	28.06177000	0.00000000
4.69818002	26.88680000	0.00000000
4.70318002	24.33851000	0.00000000
4.70818002	24.39955000	-0.02441481
4.71318002	27.17673000	-0.11597030
4.71818002	27.23777000	0.32959990
4.72318002	24.68947000	1.25736300
4.72818002	23.51451000	1.70293300
4.73318002	23.74340000	1.61137700
4.73818002	23.80444000	1.58696200
4.74318002	23.80444000	1.58696200
4.74818002	23.80444000	1.58696200
4.75318002	23.80444000	1.58696200
4.75818002	23.80444000	1.61137700
4.76318002	23.80444000	1.70293300
4.76818002	23.80444000	1.23294800
4.77318002	23.80444000	0.21362960
4.77818002	23.80444000	0.18921480
4.78318002	23.80444000	1.11697700
4.78818002	23.74340000	2.05694700
4.79318002	23.51451000	2.98471000
4.79818002	24.62844000	2.98471000
4.80318002	26.94784000	2.05694700
4.80818002	28.12280000	1.11697700
4.81318002	28.12280000	0.18921480
4.81818002	26.94784000	0.21362960
4.82318002	24.62844000	1.23294800
4.82818002	23.51451000	1.72734800
4.83318002	23.74340000	1.72734800
4.83818002	23.80444000	1.25736300
4.84318002	23.80444000	0.32959990
4.84818002	23.80444000	-0.14038510
4.85318002	23.80444000	-0.14038510
4.85818002	23.80444000	0.35401470
4.86318002	23.80444000	1.37333300
4.86818002	23.80444000	1.34891800
4.87318002	23.80444000	0.23804440
4.87818002	23.80444000	0.23804440
4.88318002	23.80444000	1.34891800
4.88818002	23.80444000	1.37333300
4.89318002	23.80444000	0.35401470
4.89818002	23.80444000	-0.14038510
4.90318002	23.80444000	-0.14038510
4.90818002	23.80444000	0.35401470
4.91318002	23.80444000	1.37333300
4.91818002	23.80444000	1.37333300
4.92318002	23.80444000	0.35401470
4.92818002	23.80444000	-0.14038510
4.93318002	23.80444000	-0.14038510
4.93818002	23.80444000	0.35401470
4.94318002	23.80444000	1.37333300
4.94818002	23.80444000	1.34891800
4.95318002	23.80444000	0.23804440
4.95818002	23.80444000	0.23804440
4.96318002	23.80444000	1.34891800
4.96818002	23.80444000	1.37333300
4.97318002	23.80444000	0.35401470
4.97818002	23.86547000	-0.14038510
4.98318002	24.09436000	-0.14038510
4.98818002	22.91940000	0.32959990
4.99318002	20.37111000	1.25736300
4.99818002	20.37111000	1.70293300
5.00318002	22.91940000	1.61137700
5.00818002	24.09436000	1.58696200
5.01318002	23.86547000	1.58696200
5.01818002	23.80444000	1.58696200
5.02318002	23.80444000	1.58696200
5.02818002	23.86547000	1.58696200
5.03318002	24.09436000	1.58696200
5.03818002	22.91940000	1.61137700
5.04318002	20.37111000	1.70293300
5.04818002	20.37111000	1.23294800
5.05318002	22.91940000	0.21362960
5.05818002	24.09436000	0.21362960
5.06318002	23.86547000	1.23294800
5.06818002	23.80444000	1.70293300
5.07318002	23.80444000	1.61137700
5.07818002	23.86547000	1.58696200
5.08318002	24.09436000	1.58696200
5.08818002	22.98043000	1.58696200
5.09318002	20.66103000	1.58696200
5.09818002	19.54710000	1.58696200
5.10318002	19.77599000	1.58696200
5.10818002	19.83703000	1.58696200
5.11318002	19.83703000	1.58696200
5.11818002	19.83703000	1.58696200
5.12318002	19.83703000	1.58696200
5.12818002	19.83703000	1.58696200
5.13318002	19.83703000	1.58696200
5.13818002	19.83703000	1.58696200
5.14318002	19.83703000	1.58696200
5.14818002	19.83703000	1.58696200
5.15318002	19.83703000	1.58696200
5.15818002	19.83703000	1.58696200
5.16318002	19.83703000	1.58696200
5.16818002	19.83703000	1.56254800
5.17318002	19.83703000	1.47099200
5.17818002	19.83703000	1.94097700
5.18318002	19.83703000	2.96029500
5.18818002	19.83703000	2.96029500
5.19318002	19.83703000	1.94097700
5.19818002	19.83703000	1.47099200
5.20318002	19.83703000	1.56254800
5.20818002	19.83703000	1.58696200
5.21318002	19.83703000	1.58696200
5.21818002	19.83703000	1.58696200
5.22318002	19.83703000	1.58696200
5.22818002	19.83703000	1.58696200
5.23318002	19.83703000	1.58696200
5.23818002	19.83703000	1.58696200
5.24318002	19.83703000	1.58696200
5.24818002	19.83703000	1.61137700
5.25318002	19.83703000	1.70293300
5.25818002	19.83703000	1.23294800
5.26318002	19.83703000	0.21362960
5.26818002	19.83703000	0.18921480
5.27318002	19.83703000	1.11697700
5.27818002	19.83703000	2.08136200
5.28318002	19.83703000	3.10068000
5.28818002	19.83703000	2.60628100
5.29318002	19.83703000	0.56764430
5.29818002	19.83703000	0.07324442
5.30318002	19.83703000	1.09256300
5.30818002	19.83703000	2.03253300
5.31318002	19.83703000	2.86874000
5.31818002	19.83703000	3.28989500
5.32318002	19.83703000	3.19834000
5.32818002	19.83703000	3.17392500
5.33318002	19.83703000	3.17392500
5.33818002	19.83703000	3.19834000
5.34318002	19.83703000	3.28989500
5.34818002	19.83703000	2.81991000
5.35318002	19.83703000	1.80059200
5.35818002	19.83703000	1.80059200
5.36318002	19.83703000	2.81991000
5.36818002	19.83703000	3.31431000
5.37318002	19.83703000	3.31431000
5.37818002	19.83703000	2.81991000
5.38318002	19.83703000	1.80059200
5.38818002	19.83703000	1.80059200
5.39318002	19.83703000	2.81991000
5.39818002	19.83703000	3.31431000
5.40318002	19.83703000	3.31431000
5.40818002	19.83703000	2.81991000
5.41318002	19.83703000	1.80059200
5.41818002	19.83703000	1.82500700
5.42318002	19.83703000	2.93588100
5.42818002	19.83703000	2.93588100
5.43318002	19.83703000	1.82500700
5.43818002	19.83703000	1.80059200
5.44318002	19.83703000	2.81991000
5.44818002	19.83703000	3.31431000
5.45318002	19.83703000	3.31431000
5.45818002	19.89807000	2.81991000
5.46318002	20.12696000	1.80059200
5.46818002	18.95199000	1.82500700
5.47318002	16.40370000	2.93588100
5.47818002	16.40370000	2.96029500
5.48318002	18.95199000	1.94097700
5.48818002	20.18799000	1.49540700
5.49318002	20.18799000	1.67851800
5.49818002	19.01303000	1.25736300
5.50318002	16.69362000	0.32959990
5.50818002	15.57970000	-0.11597030
5.51318002	15.80859000	-0.02441481
5.51818002	15.86962000	0.00000000
5.52318002	15.86962000	0.00000000
5.52818002	15.86962000	-0.02441481
5.53318002	15.86962000	-0.11597030
5.53818002	15.86962000	0.32959990
5.54318002	15.86962000	1.25736300
5.54818002	15.86962000	1.72734800
5.55318002	15.86962000	1.72734800
5.55818002	15.86962000	1.23294800
5.56318002	15.86962000	0.21362960
5.56818002	15.86962000	0.21362960
5.57318002	15.86962000	1.23294800
5.57818002	15.86962000	1.70293300
5.58318002	15.86962000	1.61137700
5.58818002	15.86962000	1.58696200
5.59318002	15.86962000	1.58696200
5.59818002	15.86962000	1.56254800
5.60318002	15.86962000	1.47099200
5.60818002	15.86962000	1.91656200
5.61318002	15.86962000	2.84432500
5.61818002	15.86962000	3.28989500
5.62318002	15.86962000	3.19834000
5.62818002	15.86962000	3.17392500
5.63318002	15.86962000	3.17392500
5.63818002	15.86962000	3.17392500
5.64318002	15.86962000	3.17392500
5.64818002	15.86962000	3.17392500
5.65318002	15.86962000	3.17392500
5.65818002	15.86962000	3.19834000
5.66318002	15.86962000	3.28989500
5.66818002	15.86962000	2.81991000
5.67318002	15.86962000	1.80059200
5.67818002	15.86962000	1.82500700
5.68318002	15.86962000	2.93588100
5.68818002	15.86962000	2.96029500
5.69318001	15.86962000	1.94097700
5.69818001	15.86962000	1.47099200
5.70318001	15.86962000	1.56254800
5.70818001	15.86962000	1.58696200
5.71318001	15.86962000	1.58696200
5.71818001	15.86962000	1.61137700
5.72318001	15.86962000	1.70293300
5.72818001	15.86962000	1.25736300
5.73318001	15.86962000	0.32959990
5.73818001	15.86962000	-0.14038510
5.74318001	15.86962000	-0.14038510
5.74818001	15.86962000	0.35401470
5.75318001	15.86962000	1.37333300
5.75818001	15.86962000	1.34891800
5.76318001	15.86962000	0.23804440
5.76818001	15.86962000	0.21362960
5.77318001	15.86962000	1.23294800
5.77818001	15.86962000	1.70293300
5.78318001	15.86962000	1.61137700
5.78818001	15.86962000	1.58696200
5.79318001	15.86962000	1.58696200
5.79818001	15.86962000	1.61137700
5.80318001	15.86962000	1.70293300
5.80818001	15.86962000	1.25736300
5.81318001	15.86962000	0.32959990
5.81818001	15.86962000	-0.14038510
5.82318001	15.86962000	-0.14038510
5.82818001	15.86962000	0.35401470
5.83318001	15.86962000	1.37333300
5.83818001	15.86962000	1.39774800
5.84318001	15.86962000	0.46998500
5.84818001	15.86962000	-0.46998500
5.85318001	15.86962000	-1.39774800
5.85818001	15.86962000	-1.37333300
5.86318001	15.86962000	-0.35401470
5.86818001	15.86962000	0.11597030
5.87318001	15.86962000	0.02441481
5.87818001	15.86962000	-0.02441481
5.88318001	15.86962000	-0.11597030
5.88818001	15.86962000	0.35401470
5.89318001	15.86962000	1.37333300
5.89818001	15.86962000	1.37333300
5.90318001	15.86962000	0.35401470
5.90818001	15.86962000	-0.14038510
5.91318001	15.86962000	-0.14038510
5.91818001	15.86962000	0.35401470
5.92318001	15.86962000	1.37333300
5.92818001	15.93066000	1.37333300
5.93318001	16.15955000	0.35401470
5.93818001	14.98459000	-0.14038510
5.94318001	12.43629000	-0.14038510
5.94818001	12.43629000	0.35401470
5.95318001	14.98459000	1.37333300
5.95818001	16.15955000	1.37333300
5.96318001	15.93066000	0.35401470
5.96818001	15.86962000	-0.14038510
5.97318001	15.86962000	-0.14038510
5.97818001	15.86962000	0.32959990
5.98318001	15.86962000	1.25736300
5.98818001	15.86962000	1.70293300
5.99318001	15.86962000	1.61137700
5.99818001	15.86962000	1.58696200
6.00318001	15.86962000	1.58696200
6.00818001	15.86962000	1.58696200
6.01318001	15.86962000	1.58696200
6.01818001	15.86962000	1.58696200
6.02318001	15.86962000	1.58696200
6.02818001	15.86962000	1.56254800
6.03318001	15.86962000	1.47099200
6.03818001	15.93066000	1.91656200
6.04318001	16.15955000	2.84432500
6.04818001	14.98459000	3.31431000
6.05318001	12.43629000	3.31431000
6.05818001	12.43629000	2.86874000
6.06318001	14.98459000	2.03253300
6.06818001	16.22059000	1.14139200
6.07318001	16.22059000	0.30518510
6.07818001	14.98459000	-0.11597030
6.08318001	12.43629000	-0.02441481
6.08818001	12.43629000	0.00000000
6.09318001	14.98459000	0.00000000
6.09818001	16.15955000	-0.02441481
6.10318001	15.93066000	-0.11597030
6.10818001	15.86962000	0.35401470
6.11318001	15.86962000	1.37333300
6.11818001	15.86962000	1.34891800
6.12318001	15.86962000	0.23804440
6.12818001	15.86962000	0.21362960
6.13318001	15.86962000	1.23294800
6.13818001	15.93066000	1.70293300
6.14318001	16.15955000	1.61137700
6.14818001	14.98459000	1.58696200
6.15318001	12.43629000	1.58696200
6.15818001	12.49733000	1.58696200
6.16318001	15.27451000	1.58696200
6.16818001	15.33555000	1.56254800
6.17318001	12.78725000	1.47099200
6.17818001	11.55125000	1.94097700
6.18318001	11.55125000	2.96029500
6.18818001	12.78725000	2.93588100
6.19318001	15.33555000	1.82500700
6.19818001	15.27451000	1.77617700
6.20318001	12.49733000	2.70394000
6.20818001	12.49733000	3.64391000
6.21318001	15.27451000	4.57167300
6.21818001	15.33555000	4.54725700
6.22318001	12.78725000	3.52794000
6.22818001	11.61229000	3.05795500
6.23318001	11.84118000	3.14951000
6.23818001	11.90222000	3.17392500
6.24318001	11.90222000	3.17392500
6.24818001	11.90222000	3.19834000
6.25318001	11.90222000	3.28989500
6.25818001	11.90222000	2.81991000
6.26318001	11.90222000	1.80059200
6.26818001	11.90222000	1.82500700
6.27318001	11.90222000	2.93588100
6.27818001	11.90222000	2.96029500
6.28318001	11.90222000	1.94097700
6.28818001	11.90222000	1.47099200
6.29318001	11.90222000	1.56254800
6.29818001	11.90222000	1.58696200
6.30318001	11.90222000	1.58696200
6.30818001	11.90222000	1.58696200
6.31318001	11.90222000	1.58696200
6.31818001	11.90222000	1.58696200
6.32318001	11.90222000	1.58696200
6.32818001	11.90222000	1.58696200
6.33318001	11.90222000	1.58696200
6.33818001	11.90222000	1.58696200
6.34318001	11.90222000	1.58696200
6.34818001	11.90222000	1.56254800
6.35318001	11.90222000	1.47099200
6.35818001	11.90222000	1.94097700
6.36318001	11.90222000	2.96029500
6.36818001	11.90222000	2.96029500
6.37318001	11.90222000	1.94097700
6.37818001	11.90222000	1.44657700
6.38318001	11.90222000	1.44657700
6.38818001	11.90222000	1.94097700
6.39318001	11.90222000	2.96029500
6.39818001	11.90222000	2.96029500
6.40318001	11.90222000	1.94097700
6.40818001	11.90222000	1.47099200
6.41318001	11.90222000	1.56254800
6.41818001	11.90222000	1.58696200
6.42318001	11.90222000	1.58696200
6.42818001	11.90222000	1.58696200
6.43318001	11.90222000	1.58696200
6.43818001	11.90222000	1.56254800
6.44318001	11.90222000	1.47099200
6.44818001	11.90222000	1.94097700
6.45318001	11.90222000	2.96029500
6.45818001	11.90222000	2.96029500
6.46318001	11.90222000	1.94097700
6.46818001	11.90222000	1.47099200
6.47318001	11.90222000	1.56254800
6.47818001	11.90222000	1.58696200
6.48318001	11.90222000	1.58696200
6.48818001	11.90222000	1.58696200
6.49318001	11.90222000	1.58696200
6.49818001	11.90222000	1.58696200
6.50318001	11.90222000	1.58696200
6.50818001	11.90222000	1.58696200
6.51318001	11.90222000	1.58696200
6.51818001	11.90222000	1.58696200
6.52318001	11.90222000	1.58696200
6.52818001	11.90222000	1.56254800
6.53318001	11.90222000	1.47099200
6.53818001	11.90222000	1.94097700
6.54318001	11.90222000	2.96029500
6.54818001	11.90222000	2.96029500
6.55318001	11.90222000	1.94097700
6.55818001	11.90222000	1.47099200
6.56318001	11.90222000	1.56254800
6.56818001	11.90222000	1.58696200
6.57318001	11.90222000	1.58696200
6.57818001	11.96325000	1.58696200
6.58318001	12.19214000	1.58696200
6.58818001	11.01718000	1.56254800
6.59318001	8.46888600	1.47099200
6.59818001	8.46888600	1.91656200
6.60318001	11.01718000	2.84432500
6.60818001	12.19214000	3.24106600
6.61318001	11.96325000	2.96639900
6.61818001	11.90222000	3.74156900
6.62318001	11.90222000	5.21866500
6.62818001	11.90222000	7.87987900
6.63318001	11.90222000	11.30406000
6.63818001	11.96325000	13.37321000
6.64318001	12.19214000	13.46477000
6.64818001	11.07822000	15.95508000
6.65318001	8.75881200	20.11780000
6.65818001	7.58384900	24.00586000
6.66318001	7.58384900	26.78304000
6.66818001	8.81984900	30.54903000
6.67318001	11.36814000	34.24787000
6.67818001	11.30711000	38.95382000
6.68318001	8.52992300	43.58043000
6.68818001	8.52992300	48.26197000
6.69318001	11.30711000	51.86926000
6.69818001	11.36814000	56.08081000
6.70318001	8.81984900	59.78576000
6.70818001	7.58384900	64.04614000
6.71318001	7.58384900	67.83654000
6.71818001	8.75881200	71.70019000
6.72318001	11.07822000	74.75204000
6.72818001	12.19214000	77.29118000
6.73318001	11.96325000	78.67672000
6.73818001	11.90222000	79.87914000
6.74318001	11.90222000	80.42847000
6.74818001	11.90222000	81.70415000
6.75318001	11.90222000	83.36436000
6.75818001	11.96325000	84.66444000
6.76318001	12.19214000	85.31144000
6.76818001	11.07822000	86.18427000
6.77318001	8.75881200	87.11204000
6.77818001	7.58384900	87.11204000
6.78318001	7.58384900	86.18427000
6.78818001	8.75881200	85.31144000
6.79318001	11.07822000	84.66444000
6.79818001	12.25318000	83.33995000
6.80318001	12.25318000	81.58208000
6.80818001	11.01718000	80.73977000
6.81318001	8.46888600	81.01443000
6.81818001	8.46888600	80.64211000
6.82318001	11.01718000	79.80590000
6.82818001	12.19214000	78.98190000
6.83318001	11.96325000	78.43257000
6.83818001	11.96325000	76.71132000
6.84318001	12.19214000	74.21490000
6.84818001	11.01718000	72.04810000
6.85318001	8.46888600	70.66255000
6.85818001	8.52992300	69.01455000
6.86318001	11.30711000	67.62901000
6.86818001	11.30711000	65.48661000
6.87318001	8.52992300	63.08176000
6.87818001	8.46888600	60.96377000
6.88318001	11.01718000	59.66979000
6.88818001	12.19214000	57.52739000
6.89318001	11.96325000	55.02487000
6.89818001	11.90222000	53.35246000
6.90318001	11.90222000	52.98624000
6.90818001	11.96325000	51.28941000
6.91318001	12.19214000	48.70144000
6.91818001	11.01718000	46.98019000
6.92318001	8.46888600	46.52242000
6.92818001	8.46888600	45.27116000
6.93318001	11.01718000	43.61095000
6.93818001	12.19214000	42.31086000
6.94318001	11.96325000	41.66998000
6.94818001	11.96325000	40.86428000
6.95318001	12.19214000	40.22340000
6.95818001	11.07822000	38.90499000
6.96318001	8.75881200	37.14103000
6.96818001	7.64488600	36.29872000
6.97318001	7.87377500	36.57338000
6.97818001	7.93481200	36.20105000
6.98318001	7.93481200	35.36485000
6.98818001	7.93481200	34.49812000
6.99318001	7.93481200	33.75347000
6.99818001	7.93481200	32.91116000
7.00318001	7.93481200	32.16651000
7.00818001	7.93481200	31.32420000
7.01318001	7.93481200	30.57955000
7.01818001	7.93481200	29.71282000
7.02318001	7.93481200	28.87661000
7.02818001	7.93481200	28.50429000
7.03318001	7.93481200	28.78506000
7.03818001	7.93481200	27.91223000
7.04318001	7.93481200	26.05060000
7.04818001	7.93481200	25.17777000
7.05318001	7.93481200	25.45854000
7.05818001	7.93481200	25.06180000
7.06318001	7.93481200	24.13404000
7.06818001	7.93481200	23.71288000
7.07318001	7.93481200	23.89599000
7.07818001	7.93481200	23.49925000
7.08318001	7.93481200	22.66304000
7.08818001	7.93481200	21.77190000
7.09318001	7.93481200	20.93570000
7.09818001	7.93481200	20.53896000
7.10318001	7.93481200	20.72207000
7.10818001	7.93481200	20.27650000
7.11318001	7.93481200	19.25718000
7.11818001	7.93481200	19.28160000
7.12318001	7.93481200	20.39247000
7.12818001	7.93481200	20.41688000
7.13318001	7.93481200	19.39757000
7.13818001	7.93481200	18.95199000
7.14318001	7.93481200	19.13511000
7.14818001	7.93481200	18.68954000
7.15318001	7.93481200	17.67022000
7.15818001	7.93481200	17.71905000
7.16318001	7.93481200	18.92147000
7.16818001	7.93481200	18.50032000
7.17318001	7.93481200	16.55324000
7.17818001	7.93481200	15.66210000
7.18318001	7.93481200	15.93676000
7.18818001	7.93481200	15.54002000
7.19318001	7.93481200	14.61226000
7.19818001	7.93481200	14.19111000
7.20318001	7.93481200	14.37422000
7.20818001	7.93481200	13.95306000
7.21318001	7.93481200	13.02530000
7.21818001	7.93481200	12.57973000
7.22318001	7.93481200	12.67128000
7.22818001	7.93481200	12.69570000
7.23318001	7.93481200	12.69570000
7.23818001	7.93481200	12.69570000
7.24318001	7.93481200	12.69570000
7.24818001	7.93481200	12.69570000
7.25318001	7.93481200	12.69570000
7.25818001	7.93481200	12.69570000
7.26318001	7.93481200	12.69570000
7.26818001	7.93481200	12.69570000
7.27318001	7.93481200	12.69570000
7.27818001	7.93481200	12.74453000
7.28318001	7.93481200	12.92764000
7.28818001	7.93481200	12.01208000
7.29318001	7.93481200	10.06500000
7.29818001	7.93481200	9.61943300
7.30318001	7.93481200	10.73031000
7.30818001	7.93481200	11.24912000
7.31318001	7.93481200	11.24912000
7.31818001	7.93481200	10.77914000
7.32318001	7.93481200	9.85137500
7.32818001	7.93481200	9.40580500
7.33318001	7.93481200	9.49735900
7.33818000	7.93481200	9.52177400
7.34318000	7.93481200	9.52177400
7.34818000	7.93481200	9.52177400
7.35318000	7.93481200	9.52177400
7.35818000	7.93481200	9.52177400
7.36318000	7.93481200	9.52177400
7.36818000	7.93481200	9.49735900
7.37318000	7.93481200	9.40580500
7.37818000	7.93481200	9.85137500
7.38318000	7.93481200	10.77914000
7.38818000	7.93481200	11.22471000
7.39318000	7.93481200	11.13315000
7.39818000	7.93481200	11.10874000
7.40318000	7.93481200	11.10874000
7.40818000	7.93481200	11.13315000
7.41318000	7.93481200	11.22471000
7.41818000	7.93481200	10.77914000
7.42318000	7.93481200	9.85137500
7.42818000	7.93481200	9.40580500
7.43318000	7.93481200	9.49735900
7.43818000	7.93481200	9.52177400
7.44318000	7.93481200	9.52177400
7.44818000	7.93481200	9.52177400
7.45318000	7.93481200	9.52177400
7.45818000	7.93481200	9.54619000
7.46318000	7.93481200	9.63774600
7.46818000	7.93481200	9.19217500
7.47318000	7.93481200	8.26441300
7.47818000	7.93481200	7.81884200
7.48318000	7.93481200	7.91039800
7.48818000	7.93481200	7.93481200
7.49318000	7.93481200	7.93481200
7.49818000	7.93481200	7.93481200
7.50318000	7.93481200	7.93481200
7.50818000	7.93481200	7.93481200
7.51318000	7.93481200	7.93481200
7.51818000	7.93481200	7.93481200
7.52318000	7.93481200	7.93481200
7.52818000	7.93481200	7.93481200
7.53318000	7.93481200	7.93481200
7.53818000	7.93481200	7.93481200
7.54318000	7.93481200	7.93481200
7.54818000	7.93481200	7.93481200
7.55318000	7.93481200	7.93481200
7.55818000	7.93481200	7.95922800
7.56318000	7.93481200	8.05078300
7.56818000	7.93481200	7.58079800
7.57318000	7.93481200	6.56148000
7.57818000	7.93481200	6.56148000
7.58318000	7.93481200	7.58079800
7.58818000	7.93481200	8.05078300
7.59318000	7.93481200	7.95922800
7.59818000	7.93481200	7.93481200
7.60318000	7.93481200	7.93481200
7.60818000	7.93481200	7.95922800
7.61318000	7.93481200	8.05078300
7.61818000	7.93481200	7.58079800
7.62318000	7.93481200	6.56148000
7.62818000	7.93481200	6.56148000
7.63318000	7.93481200	7.58079800
7.63818000	7.93481200	8.02636700
7.64318000	7.93481200	7.84325600
7.64818000	7.93481200	8.28882700
7.65318000	7.93481200	9.30814500
7.65818000	7.93481200	9.30814500
7.66318000	7.93481200	8.28882700
7.66818000	7.93481200	7.81884200
7.67318000	7.93481200	7.91039800
7.67818000	7.93481200	7.93481200
7.68318000	7.93481200	7.93481200
7.68818000	7.93481200	7.93481200
7.69318000	7.93481200	7.93481200
7.69818000	7.93481200	7.93481200
7.70318000	7.93481200	7.93481200
7.70818000	7.93481200	7.93481200
7.71318000	7.93481200	7.93481200
7.71818000	7.93481200	7.93481200
7.72318000	7.93481200	7.93481200
7.72818000	7.93481200	7.93481200
7.73318000	7.93481200	7.93481200
7.73818000	7.93481200	7.93481200
7.74318000	7.93481200	7.93481200
7.74818000	7.93481200	7.93481200
7.75318000	7.93481200	7.93481200
7.75818000	7.93481200	7.93481200
7.76318000	7.93481200	7.93481200
7.76818000	7.93481200	7.93481200
7.77318000	7.93481200	7.93481200
7.77818000	7.93481200	7.93481200
7.78318000	7.93481200	7.93481200
7.78818000	7.93481200	7.95922800
7.79318000	7.93481200	8.05078300
7.79818000	7.93481200	7.60521200
7.80318000	7.93481200	6.67745000
7.80818000	7.93481200	6.23187900
7.81318000	7.93481200	6.32343500
7.81818000	7.93481200	6.32343500
7.82318000	7.93481200	6.23187900
7.82818000	7.93481200	6.70186400
7.83318000	7.93481200	7.72118300
7.83818000	7.93481200	7.69676800
7.84318000	7.93481200	6.58589400
7.84818000	7.93481200	6.56148000
7.85318000	7.93481200	7.58079800
7.85818000	7.93481200	8.05078300
7.86318000	7.93481200	7.95922800
7.86818000	7.93481200	7.93481200
7.87318000	7.93481200	7.93481200
7.87818000	7.93481200	7.93481200
7.88318000	7.93481200	7.93481200
7.88818000	7.93481200	7.93481200
7.89318000	7.93481200	7.93481200
7.89818000	7.93481200	7.93481200
7.90318000	7.93481200	7.93481200
7.90818000	7.93481200	7.93481200
7.91318000	7.93481200	7.93481200
7.91818000	7.93481200	7.95922800
7.92318000	7.93481200	8.05078300
7.92818000	7.93481200	7.58079800
7.93318000	7.93481200	6.56148000
7.93818000	7.93481200	6.58589400
7.94318000	7.93481200	7.69676800
7.94818000	7.93481200	7.69676800
7.95318000	7.93481200	6.58589400
7.95818000	7.93481200	6.56148000
7.96318000	7.93481200	7.58079800
7.96818000	7.93481200	8.05078300
7.97318000	7.93481200	7.95922800
7.97818000	7.93481200	7.93481200
7.98318000	7.93481200	7.93481200
7.98818000	7.93481200	7.93481200
7.99318000	7.93481200	7.93481200
7.99818000	7.93481200	7.95922800
8.00318000	7.93481200	8.05078300
8.00818000	7.93481200	7.60521200
8.01318000	7.93481200	6.67745000
8.01818000	7.93481200	6.23187900
8.02318000	7.93481200	6.32343500
8.02818000	7.93481200	6.34785000
8.03318000	7.93481200	6.34785000
8.03818000	7.93481200	6.34785000
8.04318000	7.93481200	6.34785000
8.04818000	7.93481200	6.34785000
8.05318000	7.93481200	6.34785000
8.05818000	7.93481200	6.34785000
8.06318000	7.93481200	6.34785000
8.06818000	7.93481200	6.37226500
8.07318000	7.93481200	6.46382000
8.07818000	7.93481200	6.01825000
8.08318000	7.93481200	5.09048700
8.08818000	7.99584900	4.64491700
8.09318000	8.22473800	4.73647300
8.09818000	7.04977500	4.76088700
8.10318000	4.50148000	4.76088700
8.10818000	4.50148000	4.76088700
8.11318000	7.04977500	4.76088700
8.11818000	8.22473800	4.76088700
8.12318000	7.99584900	4.76088700
8.12818000	7.93481200	4.76088700
8.13318000	7.93481200	4.76088700
8.13818000	7.93481200	4.76088700
8.14318000	7.93481200	4.76088700
8.14818000	7.93481200	4.73647300
8.15318000	7.93481200	4.64491700
8.15818000	7.99584900	5.09048700
8.16318000	8.22473800	6.01825000
8.16818000	7.11081200	6.46382000
8.17318000	4.79140600	6.37226500
8.17818000	3.61644300	6.34785000
8.18318000	3.61644300	6.34785000
8.18818000	4.79140600	6.32343500
8.19318000	7.11081200	6.23187900
8.19818000	8.22473800	6.67745000
8.20318000	7.99584900	7.60521200
8.20818000	7.99584900	8.05078300
8.21318000	8.22473800	7.95922800
8.21818000	7.11081200	7.95922800
8.22318000	4.79140600	8.05078300
8.22818000	3.61644300	7.62962700
8.23318000	3.61644300	6.79342000
8.23818000	4.79140600	5.87786500
8.24318000	7.11081200	4.95010200
8.24818000	8.22473800	4.97451700
8.25318000	7.99584900	5.99383500
8.25818000	7.93481200	6.46382000
8.26318000	7.93481200	6.37226500
8.26818000	7.93481200	6.32343500
8.27318000	7.93481200	6.23187900
8.27818000	7.99584900	6.70186400
8.28318000	8.22473800	7.72118300
8.28818000	7.11081200	7.72118300
8.29318000	4.79140600	6.70186400
8.29818000	3.61644300	6.23187900
8.30318000	3.61644300	6.32343500
8.30818000	4.79140600	6.34785000
8.31318000	7.11081200	6.34785000
8.31818000	8.22473800	6.34785000
8.32318000	7.99584900	6.34785000
8.32818000	7.99584900	6.34785000
8.33318000	8.22473800	6.34785000
8.33818000	7.04977500	6.34785000
8.34318000	4.50148000	6.34785000
8.34818000	4.50148000	6.37226500
8.35318000	7.04977500	6.46382000
8.35818000	8.28577500	6.01825000
8.36318000	8.28577500	5.09048700
8.36818000	7.11081200	4.64491700
8.37318000	4.79140600	4.73647300
8.37818000	3.61644300	4.78530200
8.38318000	3.61644300	4.87685800
8.38818000	4.85244300	4.40687300
8.39318000	7.40073800	3.38755500
8.39818000	7.40073800	3.36314000
8.40318000	4.85244300	4.29090200
8.40818000	3.67748000	5.23087300
8.41318000	3.90636900	6.15863500
8.41818000	3.96740600	6.08539100
8.42318000	3.96740600	4.88296100
8.42818000	3.90636900	5.30411700
8.43318000	3.67748000	7.25119700
8.43818000	4.85244300	8.19116800
8.44318000	7.40073800	8.09961200
8.44818000	7.33970100	7.60521200
8.45318000	4.56251700	6.67745000
8.45818000	4.56251700	6.23187900
8.46318000	7.33970100	6.32343500
8.46818000	7.40073800	6.34785000
8.47318000	4.85244300	6.34785000
8.47818000	3.61644300	6.32343500
8.48318000	3.61644300	6.23187900
8.48818000	4.85244300	6.70186400
8.49318000	7.40073800	7.72118300
8.49818000	7.40073800	7.72118300
8.50318000	4.85244300	6.70186400
8.50818000	3.67748000	6.20746500
8.51318000	3.90636900	6.20746500
8.51818000	3.96740600	6.67745000
8.52318000	3.96740600	7.60521200
8.52818000	3.90636900	8.07519700
8.53318000	3.67748000	8.07519700
8.53818000	4.79140600	7.62962700
8.54318000	7.11081200	6.79342000
8.54818000	8.28577500	5.87786500
8.55318000	8.28577500	4.95010200
8.55818000	7.11081200	4.99893200
8.56318000	4.79140600	6.10980600
8.56818000	3.67748000	6.13422100
8.57318000	3.90636900	5.11490200
8.57818000	3.96740600	4.62050200
8.58318000	3.96740600	4.62050200
8.58818000	3.96740600	5.11490200
8.59318000	3.96740600	6.13422100
8.59818000	3.96740600	6.13422100
8.60318000	3.96740600	5.11490200
8.60818000	3.96740600	4.64491700
8.61318000	3.96740600	4.73647300
8.61818000	3.96740600	4.76088700
8.62318000	3.96740600	4.76088700
8.62818000	3.96740600	4.73647300
8.63318000	3.96740600	4.64491700
8.63818000	3.96740600	5.11490200
8.64318000	3.96740600	6.13422100
8.64818000	3.96740600	6.10980600
8.65318000	3.96740600	4.99893200
8.65818000	3.96740600	4.99893200
8.66318000	3.96740600	6.10980600
8.66818000	3.90636900	6.13422100
8.67318000	3.67748000	5.11490200
8.67818000	4.85244300	4.64491700
8.68318000	7.40073800	4.73647300
8.68818000	7.40073800	4.76088700
8.69318000	4.85244300	4.76088700
8.69818000	3.67748000	4.73647300
8.70318000	3.90636900	4.64491700
8.70818000	3.96740600	5.09048700
8.71318000	3.96740600	6.01825000
8.71818000	3.96740600	6.48823500
8.72318000	3.96740600	6.48823500
8.72818000	3.96740600	6.01825000
8.73318000	3.96740600	5.09048700
8.73818000	3.90636900	4.66933200
8.74318000	3.67748000	4.85244300
8.74818000	4.85244300	4.38245800
8.75318000	7.40073800	3.27158400
8.75818000	7.40073800	3.74156900
8.76318000	4.85244300	5.78020600
8.76818000	3.61644300	6.22577600
8.77318000	3.61644300	5.02334600
8.77818000	4.85244300	4.99893200
8.78318000	7.40073800	6.10980600
8.78818000	7.40073800	6.13422100
8.79318000	4.85244300	5.11490200
8.79818000	3.67748000	4.64491700
8.80318000	3.90636900	4.73647300
8.80818000	3.96740600	4.73647300
8.81318000	3.96740600	4.64491700
8.81818000	3.96740600	5.09048700
8.82318000	3.96740600	6.01825000
8.82818000	3.96740600	6.46382000
8.83318000	3.96740600	6.37226500
8.83818000	3.96740600	6.37226500
8.84318000	3.96740600	6.46382000
8.84818000	3.96740600	5.99383500
8.85318000	3.96740600	4.97451700
8.85818000	3.96740600	4.95010200
8.86318000	3.96740600	5.87786500
8.86818000	3.96740600	6.79342000
8.87318000	3.96740600	7.62962700
8.87818000	3.96740600	8.07519700
8.88318000	3.96740600	8.07519700
8.88818000	3.96740600	7.60521200
8.89318000	3.96740600	6.67745000
8.89818000	3.96740600	6.23187900
8.90318000	3.96740600	6.32343500
8.90818000	3.96740600	6.34785000
8.91318000	3.96740600	6.34785000
8.91818000	3.96740600	6.37226500
8.92318000	3.96740600	6.46382000
8.92818000	3.96740600	5.99383500
8.93318000	3.96740600	4.97451700
8.93818000	3.96740600	4.99893200
8.94318000	3.96740600	6.10980600
8.94818000	3.96740600	6.15863500
8.95318000	3.96740600	5.23087300
8.95818000	3.96740600	4.29090200
8.96318000	3.96740600	3.36314000
8.96818000	3.96740600	3.38755500
8.97318000	3.96740600	4.40687300
8.97818000	3.96740600	4.87685800
8.98317999	3.96740600	4.78530200
8.98817999	3.96740600	4.76088700
8.99317999	3.96740600	4.76088700
8.99817999	3.96740600	4.76088700
9.00317999	3.96740600	4.76088700
9.00817999	3.96740600	4.76088700
9.01317999	3.96740600	4.76088700
9.01817999	3.96740600	4.78530200
9.02317999	3.96740600	4.87685800
