Time	Channel A	Channel B
(us)	(mV)	(mV)

-1.00306106	11.90222000	11.32237000
-0.99806106	11.90222000	12.34169000
-0.99306106	11.90222000	12.81167000
-0.98806106	11.90222000	12.72011000
-0.98306106	11.90222000	12.69570000
-0.97806106	11.90222000	12.69570000
-0.97306106	11.90222000	12.69570000
-0.96806106	11.90222000	12.69570000
-0.96306106	11.90222000	12.69570000
-0.95806106	11.90222000	12.69570000
-0.95306106	11.90222000	12.67128000
-0.94806106	11.90222000	12.57973000
-0.94306106	11.90222000	13.04971000
-0.93806106	11.90222000	14.06903000
-0.93306106	11.90222000	14.06903000
-0.92806106	11.90222000	13.04971000
-0.92306106	11.96325000	12.57973000
-0.91806106	12.19214000	12.67128000
-0.91306106	11.01718000	12.69570000
-0.90806106	8.46888600	12.69570000
-0.90306106	8.46888600	12.67128000
-0.89806106	11.01718000	12.57973000
-0.89306106	12.19214000	13.02530000
-0.88806106	11.96325000	13.95306000
-0.88306106	11.96325000	14.42305000
-0.87806106	12.19214000	14.42305000
-0.87306106	11.01718000	13.95306000
-0.86806106	8.46888600	13.02530000
-0.86306106	8.46888600	12.57973000
-0.85806106	11.01718000	12.67128000
-0.85306106	12.19214000	12.72011000
-0.84806106	11.96325000	12.81167000
-0.84306106	11.90222000	12.34169000
-0.83806106	11.90222000	11.32237000
-0.83306106	11.96325000	11.34678000
-0.82806106	12.19214000	12.45765000
-0.82306106	11.01718000	12.45765000
-0.81806106	8.46888600	11.34678000
-0.81306106	8.52992300	11.34678000
-0.80806106	11.30711000	12.45765000
-0.80306106	11.30711000	12.45765000
-0.79806106	8.52992300	11.34678000
-0.79306106	8.52992300	11.32237000
-0.78806106	11.30711000	12.34169000
-0.78306106	11.30711000	12.81167000
-0.77806106	8.52992300	12.72011000
-0.77306106	8.46888600	12.69570000
-0.76806106	11.01718000	12.69570000
-0.76306106	12.19214000	12.69570000
-0.75806106	11.96325000	12.69570000
-0.75306106	11.90222000	12.72011000
-0.74806106	11.90222000	12.81167000
-0.74306106	11.90222000	12.34169000
-0.73806106	11.90222000	11.32237000
-0.73306106	11.90222000	11.34678000
-0.72806106	11.90222000	12.45765000
-0.72306106	11.90222000	12.48207000
-0.71806106	11.90222000	11.46275000
-0.71306106	11.90222000	10.99277000
-0.70806106	11.90222000	11.08432000
-0.70306106	11.90222000	11.10874000
-0.69806106	11.90222000	11.10874000
-0.69306106	11.90222000	11.08432000
-0.68806106	11.90222000	10.99277000
-0.68306106	11.90222000	11.46275000
-0.67806106	11.90222000	12.48207000
-0.67306106	11.90222000	12.45765000
-0.66806106	11.90222000	11.34678000
-0.66306106	11.90222000	11.32237000
-0.65806106	11.90222000	12.34169000
-0.65306106	11.90222000	12.81167000
-0.64806106	11.90222000	12.72011000
-0.64306106	11.96325000	12.69570000
-0.63806106	12.19214000	12.69570000
-0.63306106	11.07822000	12.67128000
-0.62806106	8.75881200	12.57973000
-0.62306106	7.58384900	13.02530000
-0.61806106	7.58384900	13.95306000
-0.61306106	8.81984900	14.39863000
-0.60806106	11.36814000	14.30708000
-0.60306106	11.30711000	14.28266000
-0.59806106	8.52992300	14.28266000
-0.59306106	8.46888600	14.28266000
-0.58806106	11.01718000	14.28266000
-0.58306106	12.25318000	14.30708000
-0.57806106	12.25318000	14.39863000
-0.57306106	11.01718000	13.92865000
-0.56806106	8.46888600	12.90933000
-0.56306106	8.46888600	12.90933000
-0.55806106	11.01718000	13.92865000
-0.55306106	12.19214000	14.39863000
-0.54806106	11.96325000	14.30708000
-0.54306106	11.90222000	14.30708000
-0.53806106	11.90222000	14.39863000
-0.53306106	11.96325000	13.95306000
-0.52806106	12.19214000	13.02530000
-0.52306106	11.01718000	12.55531000
-0.51806106	8.46888600	12.55531000
-0.51306106	8.46888600	13.07413000
-0.50806106	11.01718000	14.18500000
-0.50306106	12.25318000	13.71502000
-0.49806106	12.25318000	11.67638000
-0.49306106	11.01718000	11.20640000
-0.48806106	8.46888600	12.31727000
-0.48306106	8.46888600	12.81167000
-0.47806106	11.01718000	12.72011000
-0.47306106	12.25318000	12.69570000
-0.46806106	12.25318000	12.69570000
-0.46306106	11.01718000	12.69570000
-0.45806106	8.46888600	12.69570000
-0.45306106	8.46888600	12.69570000
-0.44806106	11.01718000	12.69570000
-0.44306106	12.19214000	12.69570000
-0.43806106	11.96325000	12.69570000
-0.43306106	11.90222000	12.69570000
-0.42806106	11.90222000	12.69570000
-0.42306106	11.90222000	12.72011000
-0.41806106	11.90222000	12.81167000
-0.41306106	11.96325000	12.36610000
-0.40806106	12.19214000	11.43834000
-0.40306106	11.01718000	10.96835000
-0.39806106	8.46888600	10.96835000
-0.39306106	8.46888600	11.43834000
-0.38806106	11.01718000	12.36610000
-0.38306106	12.25318000	12.78726000
-0.37806106	12.25318000	12.60414000
-0.37306106	11.01718000	13.02530000
-0.36806106	8.46888600	13.95306000
-0.36306106	8.46888600	14.39863000
-0.35806106	11.01718000	14.30708000
-0.35306106	12.19214000	14.25825000
-0.34806106	11.96325000	14.16669000
-0.34306106	11.90222000	14.61226000
-0.33806106	11.90222000	15.54002000
-0.33306106	11.96325000	16.01001000
-0.32806106	12.19214000	16.01001000
-0.32306106	11.01718000	15.51561000
-0.31806106	8.46888600	14.49629000
-0.31306106	8.52992300	14.54512000
-0.30806106	11.30711000	15.74755000
-0.30306106	11.30711000	15.30198000
-0.29806106	8.52992300	13.26334000
-0.29306106	8.46888600	12.79336000
-0.28806106	11.01718000	13.90423000
-0.28306106	12.19214000	14.42305000
-0.27806106	11.96325000	14.42305000
-0.27306106	11.90222000	13.95306000
-0.26806106	11.90222000	13.02530000
-0.26306106	11.96325000	12.57973000
-0.25806106	12.19214000	12.67128000
-0.25306106	11.01718000	12.69570000
-0.24806106	8.46888600	12.69570000
-0.24306106	8.46888600	12.69570000
-0.23806106	11.01718000	12.69570000
-0.23306106	12.19214000	12.69570000
-0.22806106	11.96325000	12.69570000
-0.22306106	11.90222000	12.72011000
-0.21806106	11.90222000	12.81167000
-0.21306106	11.90222000	12.34169000
-0.20806106	11.90222000	11.32237000
-0.20306106	11.90222000	11.32237000
-0.19806106	11.90222000	12.34169000
-0.19306106	11.90222000	12.81167000
-0.18806106	11.90222000	12.72011000
-0.18306106	11.90222000	12.72011000
-0.17806106	11.90222000	12.81167000
-0.17306106	11.90222000	12.34169000
-0.16806106	11.90222000	11.32237000
-0.16306106	11.96325000	11.34678000
-0.15806106	12.19214000	12.45765000
-0.15306106	11.01718000	12.48207000
-0.14806106	8.46888600	11.46275000
-0.14306106	8.46888600	10.99277000
-0.13806106	11.01718000	11.08432000
-0.13306106	12.13111000	11.10874000
-0.12806106	11.67333000	11.10874000
-0.12306106	12.66518000	11.13315000
-0.11806106	14.75570000	11.22471000
-0.11306106	16.92251000	10.80355000
-0.10806106	18.78414000	9.96734500
-0.10306106	20.88992000	9.07620400
-0.09806106	22.75155000	8.23999700
-0.09306106	24.81155000	7.81884200
-0.08806106	26.41377000	7.91039800
-0.08306106	29.60295000	7.95922800
-0.07806106	33.52458000	8.05078300
-0.07306106	37.82769000	7.62962700
-0.06806106	41.52043000	6.79342000
-0.06306106	45.70147000	5.90228000
-0.05806106	49.16532000	5.06607200
-0.05306106	54.58235000	4.64491700
-0.04806106	60.82338000	4.73647300
-0.04306106	65.00442000	4.78530200
-0.03806106	65.91998000	4.87685800
-0.03306106	70.10101000	4.40687300
-0.02806106	76.35731000	3.38755500
-0.02306106	81.77434000	3.38755500
-0.01806106	85.23819000	4.40687300
-0.01306106	89.35819000	4.85244300
-0.00806106	92.82204000	4.66933200
-0.00306106	98.17804000	5.06607200
0.00193894	104.19020000	5.90228000
0.00693894	109.54620000	6.79342000
0.01193894	113.01000000	7.62962700
0.01693894	117.19110000	8.07519700
0.02193894	120.88380000	8.07519700
0.02693894	125.12590000	7.55638300
0.03193894	128.81860000	6.44550900
0.03693894	133.06070000	6.89107900
0.04193894	136.75340000	8.83816100
0.04693894	141.05650000	9.75371600
0.05193894	144.99340000	9.57060400
0.05693894	148.12160000	9.54619000
0.06193894	149.49490000	9.63774600
0.06693894	152.62310000	9.19217500
0.07193894	156.54470000	8.26441300
0.07693894	160.90880000	7.81884200
0.08193894	164.83050000	7.91039800
0.08693894	168.01960000	7.93481200
0.09193894	169.62190000	7.93481200
0.09693894	171.63610000	7.93481200
0.10193894	173.23830000	7.93481200
0.10693894	176.48850000	7.95922800
0.11193894	180.63910000	8.05078300
0.11693894	183.88930000	7.60521200
0.12193894	185.49150000	6.67745000
0.12693894	187.55150000	6.23187900
0.13193894	189.41310000	6.32343500
0.13693894	191.51890000	6.34785000
0.14193894	193.38050000	6.34785000
0.14693894	195.48630000	6.34785000
0.15193894	197.34790000	6.34785000
0.15693894	199.45370000	6.34785000
0.16193894	201.31530000	6.34785000
0.16693894	203.42110000	6.34785000
0.17193894	205.28270000	6.34785000
0.17693894	207.44960000	6.34785000
0.18193894	209.54010000	6.34785000
0.18693894	210.53190000	6.34785000
0.19193894	210.07410000	6.34785000
0.19693894	211.12700000	6.34785000
0.20193894	213.46170000	6.34785000
0.20693894	214.51460000	6.32343500
0.21193894	214.05680000	6.23187900
0.21693894	215.04870000	6.65303500
0.22193894	217.13920000	7.48924200
0.22693894	219.36700000	8.38038300
0.23193894	221.45760000	9.21658900
0.23693894	222.51040000	9.66216000
0.24193894	222.28150000	9.66216000
0.24693894	222.22050000	9.16776000
0.25193894	222.22050000	8.14844100
0.25693894	222.22050000	8.12402700
0.26193894	222.22050000	9.05179000
0.26693894	222.22050000	9.96734500
0.27193894	222.22050000	10.80355000
0.27693894	222.28150000	11.24912000
0.28193894	222.51040000	11.24912000
0.28693894	221.39650000	10.75472000
0.29193894	219.07710000	9.73540400
0.29693894	218.02420000	9.73540400
0.30193894	218.48200000	10.75472000
0.30693894	217.42910000	11.24912000
0.31193894	215.10970000	11.24912000
0.31693894	214.05680000	10.80355000
0.32193894	214.51460000	9.96734500
0.32693894	213.46170000	9.07620400
0.33193894	211.12700000	8.23999700
0.33693894	210.07410000	7.79442700
0.34193894	210.53190000	7.79442700
0.34693894	209.54010000	8.28882700
0.35193894	207.44960000	9.30814500
0.35693894	205.22170000	9.30814500
0.36193894	203.13120000	8.28882700
0.36693894	202.13930000	7.81884200
0.37193894	202.59710000	7.91039800
0.37693894	201.54420000	7.93481200
0.38193894	199.22480000	7.93481200
0.38693894	198.17190000	7.91039800
0.39193894	198.62970000	7.81884200
0.39693894	197.63790000	8.26441300
0.40193894	195.54730000	9.19217500
0.40693894	193.31950000	9.63774600
0.41193894	191.22900000	9.54619000
0.41693894	190.17610000	9.52177400
0.42193894	190.40500000	9.52177400
0.42693894	190.46600000	9.52177400
0.43193894	190.46600000	9.52177400
0.43693894	190.52700000	9.49735900
0.44193894	190.75590000	9.40580500
0.44693894	189.64200000	9.87579000
0.45193894	187.32260000	10.89511000
0.45693894	186.26970000	10.87069000
0.46193894	186.72750000	9.75981900
0.46693894	185.67460000	9.73540400
0.47193894	183.35520000	10.75472000
0.47693894	182.24130000	11.22471000
0.48193894	182.47020000	11.13315000
0.48693894	182.59220000	11.10874000
0.49193894	182.82110000	11.10874000
0.49693894	181.70720000	11.10874000
0.50193894	179.38780000	11.10874000
0.50693894	178.27390000	11.10874000
0.51193894	178.50280000	11.10874000
0.51693894	178.56380000	11.08432000
0.52193894	178.56380000	10.99277000
0.52693894	178.56380000	11.46275000
0.53193894	178.56380000	12.48207000
0.53693894	178.62480000	12.48207000
0.54193894	178.85370000	11.46275000
0.54693894	177.73980000	10.99277000
0.55193894	175.42040000	11.08432000
0.55693893	174.30650000	11.10874000
0.56193893	174.53530000	11.10874000
0.56693893	174.59640000	11.08432000
0.57193893	174.59640000	10.99277000
0.57693893	174.59640000	11.46275000
0.58193893	174.59640000	12.48207000
0.58693893	174.59640000	12.48207000
0.59193893	174.59640000	11.46275000
0.59693893	174.65740000	10.99277000
0.60193893	174.88630000	11.08432000
0.60693893	173.77240000	11.10874000
0.61193893	171.45300000	11.10874000
0.61693893	170.33910000	11.10874000
0.62193893	170.56790000	11.10874000
0.62693893	170.62900000	11.10874000
0.63193893	170.62900000	11.10874000
0.63693893	170.69000000	11.13315000
0.64193893	170.91890000	11.22471000
0.64693893	169.80500000	10.75472000
0.65193893	167.48560000	9.73540400
0.65693893	166.37160000	9.75981900
0.66193893	166.60050000	10.87069000
0.66693893	166.66160000	10.89511000
0.67193893	166.66160000	9.87579000
0.67693893	166.72260000	9.38139000
0.68193893	166.95150000	9.38139000
0.68693893	165.83760000	9.85137500
0.69193893	163.51820000	10.77914000
0.69693893	162.40430000	11.24912000
0.70193893	162.63310000	11.24912000
0.70693893	162.69420000	10.75472000
0.71193893	162.69420000	9.73540400
0.71693893	162.69420000	9.73540400
0.72193893	162.69420000	10.75472000
0.72693893	162.69420000	11.20029000
0.73193893	162.69420000	11.01718000
0.73693893	162.75520000	11.43834000
0.74193893	162.98410000	12.36610000
0.74693893	161.87020000	12.81167000
0.75193893	159.55080000	12.72011000
0.75693893	158.43680000	12.72011000
0.76193893	158.66570000	12.81167000
0.76693893	158.72680000	12.36610000
0.77193893	158.72680000	11.43834000
0.77693893	158.72680000	10.96835000
0.78193893	158.72680000	10.96835000
0.78693893	158.78780000	11.43834000
0.79193893	159.01670000	12.36610000
0.79693893	157.90280000	12.81167000
0.80193893	155.58340000	12.72011000
0.80693893	154.46940000	12.69570000
0.81193893	154.69830000	12.69570000
0.81693893	154.75940000	12.69570000
0.82193893	154.75940000	12.69570000
0.82693893	154.75940000	12.67128000
0.83193893	154.75940000	12.57973000
0.83693893	154.82040000	13.04971000
0.84193893	155.04930000	14.06903000
0.84693893	153.93530000	14.04462000
0.85193893	151.61590000	12.93374000
0.85693893	150.50200000	12.90933000
0.86193893	150.73090000	13.92865000
0.86693893	150.79190000	14.37422000
0.87193893	150.79190000	14.19111000
0.87693893	150.79190000	14.66109000
0.88193893	150.79190000	15.77197000
0.88693893	150.79190000	15.32640000
0.89193893	150.79190000	13.37931000
0.89693893	150.85300000	12.46376000
0.90193893	151.08190000	12.64687000
0.90693893	149.96790000	12.72011000
0.91193893	147.64850000	12.81167000
0.91693893	146.53460000	12.36610000
0.92193893	146.76350000	11.43834000
0.92693893	146.82450000	10.96835000
0.93193893	146.82450000	10.96835000
0.93693893	146.82450000	11.43834000
0.94193893	146.82450000	12.36610000
0.94693893	146.88560000	12.83609000
0.95193893	147.11450000	12.83609000
0.95693893	146.00050000	12.34169000
0.96193893	143.68110000	11.32237000
0.96693893	142.56720000	11.32237000
0.97193893	142.79610000	12.34169000
0.97693893	142.85710000	12.81167000
0.98193893	142.85710000	12.72011000
0.98693893	142.85710000	12.69570000
0.99193893	142.85710000	12.69570000
0.99693893	142.91820000	12.72011000
1.00193893	143.14710000	12.81167000
1.00693893	141.97210000	12.34169000
1.01193893	139.40860000	11.32237000
1.01693893	139.46960000	11.34678000
1.02193893	142.26200000	12.45765000
1.02693893	142.32310000	12.45765000
1.03193893	139.75950000	11.34678000
1.03693893	138.58450000	11.32237000
1.04193893	138.81340000	12.34169000
1.04693893	138.87450000	12.83609000
1.05193893	138.87450000	12.83609000
1.05693893	138.87450000	12.36610000
1.06193893	138.87450000	11.43834000
1.06693893	138.93550000	10.96835000
1.07193893	139.16440000	10.96835000
1.07693893	138.05050000	11.46275000
1.08193893	135.73110000	12.48207000
1.08693893	134.61710000	12.48207000
1.09193893	134.84600000	11.46275000
1.09693893	134.90710000	10.99277000
1.10193893	134.90710000	11.08432000
1.10693893	134.90710000	11.10874000
1.11193893	134.90710000	11.10874000
1.11693893	134.96810000	11.08432000
1.12193893	135.19700000	10.99277000
1.12693893	134.08310000	11.46275000
1.13193893	131.76370000	12.48207000
1.13693893	130.58870000	12.48207000
1.14193893	130.58870000	11.46275000
1.14693893	131.82470000	10.96835000
1.15193893	134.37300000	10.96835000
1.15693893	134.37300000	11.46275000
1.16193893	131.82470000	12.48207000
1.16693893	130.64970000	12.48207000
1.17193893	130.87860000	11.46275000
1.17693893	131.00070000	10.99277000
1.18193893	131.22960000	11.08432000
1.18693893	130.05460000	11.08432000
1.19193893	127.50630000	10.99277000
1.19693893	127.56740000	11.46275000
1.20193893	130.34450000	12.48207000
1.20693893	130.40560000	12.48207000
1.21193893	127.85730000	11.46275000
1.21693893	126.68230000	10.99277000
1.22193893	126.91120000	11.08432000
1.22693893	126.97230000	11.10874000
1.23193893	126.97230000	11.10874000
1.23693893	127.03330000	11.10874000
1.24193893	127.26220000	11.10874000
1.24693893	126.14820000	11.08432000
1.25193893	123.82880000	10.99277000
1.25693893	122.65390000	11.43834000
1.26193893	122.65390000	12.36610000
1.26693893	123.88990000	12.81167000
1.27193893	126.43820000	12.72011000
1.27693893	126.43820000	12.67128000
1.28193893	123.88990000	12.57973000
1.28693893	122.71490000	13.04971000
1.29193893	122.94380000	14.06903000
1.29693893	123.00480000	14.04462000
1.30193893	123.00480000	12.93374000
1.30693893	123.00480000	12.93374000
1.31193893	123.00480000	14.04462000
1.31693893	123.06590000	14.04462000
1.32193893	123.29480000	12.93374000
1.32693893	122.11980000	12.93374000
1.33193893	119.57150000	14.04462000
1.33693893	119.63260000	14.04462000
1.34193893	122.40970000	12.93374000
1.34693893	122.47080000	12.93374000
1.35193893	119.92250000	14.04462000
1.35693893	118.74750000	14.06903000
1.36193893	118.97640000	13.04971000
1.36693893	119.03740000	12.57973000
1.37193893	119.03740000	12.67128000
1.37693893	119.03740000	12.69570000
1.38193893	119.03740000	12.69570000
1.38693893	119.03740000	12.67128000
1.39193893	119.03740000	12.57973000
1.39693893	119.09850000	13.02530000
1.40193893	119.32740000	13.95306000
1.40693893	118.21340000	14.42305000
1.41193893	115.89400000	14.42305000
1.41693893	114.78010000	13.92865000
1.42193893	115.00900000	12.90933000
1.42693893	115.07000000	12.93374000
1.43193893	115.07000000	14.04462000
1.43693893	115.07000000	14.04462000
1.44193893	115.07000000	12.93374000
1.44693893	115.07000000	12.90933000
1.45193893	115.07000000	13.92865000
1.45693893	115.13110000	14.39863000
1.46193893	115.36000000	14.30708000
1.46693893	114.24600000	14.30708000
1.47193893	111.92660000	14.39863000
1.47693893	110.81270000	13.92865000
1.48193893	111.04160000	12.90933000
1.48693893	111.10260000	12.93374000
1.49193893	111.10260000	14.04462000
1.49693893	111.10260000	14.04462000
1.50193893	111.10260000	12.93374000
1.50693893	111.10260000	12.88491000
1.51193893	111.10260000	13.81268000
1.51693893	111.10260000	14.77706000
1.52193893	111.10260000	15.79638000
1.52693893	111.10260000	15.32640000
1.53193893	111.10260000	13.37931000
1.53693893	111.16370000	12.46376000
1.54193893	111.39250000	12.64687000
1.54693893	110.21760000	12.72011000
1.55193893	107.66930000	12.81167000
1.55693893	107.73030000	12.36610000
1.56193893	110.50750000	11.43834000
1.56693893	110.56860000	10.99277000
1.57193893	108.02030000	11.08432000
1.57693893	106.84530000	11.10874000
1.58193893	107.07420000	11.10874000
1.58693893	107.13520000	11.08432000
1.59193893	107.13520000	10.99277000
1.59693893	107.13520000	11.46275000
1.60193893	107.13520000	12.48207000
1.60693893	107.19630000	12.45765000
1.61193893	107.42510000	11.34678000
1.61693893	106.31120000	11.32237000
1.62193893	103.99180000	12.34169000
1.62693893	102.87790000	12.78726000
1.63193893	103.10680000	12.60414000
1.63693893	103.16780000	13.02530000
1.64193893	103.16780000	13.95306000
1.64693893	103.16780000	14.42305000
1.65193893	103.16780000	14.42305000
1.65693893	103.16780000	13.95306000
1.66193893	103.16780000	13.02530000
1.66693893	103.16780000	12.57973000
1.67193893	103.16780000	12.67128000
1.67693893	103.16780000	12.69570000
1.68193893	103.16780000	12.69570000
1.68693893	103.22890000	12.67128000
1.69193893	103.45770000	12.57973000
1.69693893	102.34380000	13.04971000
1.70193893	100.02440000	14.06903000
1.70693893	98.91048000	14.06903000
1.71193893	99.13937000	13.04971000
1.71693893	99.20041000	12.57973000
1.72193893	99.20041000	12.67128000
1.72693893	99.13937000	12.69570000
1.73193893	98.91048000	12.69570000
1.73693893	100.08540000	12.67128000
1.74193893	102.63370000	12.57973000
1.74693893	102.63370000	13.04971000
1.75193893	100.08540000	14.06903000
1.75693893	98.91048000	14.06903000
1.76193893	99.13937000	13.04971000
1.76693893	99.20041000	12.60414000
1.77193893	99.20041000	12.78726000
1.77693893	99.20041000	12.36610000
1.78193893	99.20041000	11.43834000
1.78693893	99.26145000	10.99277000
1.79193893	99.49034000	11.08432000
1.79693893	98.37641000	11.10874000
1.80193893	96.05700000	11.10874000
1.80693893	94.88204000	11.10874000
1.81193893	94.88204000	11.10874000
1.81693893	96.11804000	11.10874000
1.82193893	98.66634000	11.10874000
1.82693893	98.66634000	11.13315000
1.83193893	96.11804000	11.22471000
1.83693893	94.94308000	10.75472000
1.84193893	95.17197000	9.73540400
1.84693893	95.23300000	9.73540400
1.85193893	95.23300000	10.75472000
1.85693893	95.23300000	11.22471000
1.86193893	95.23300000	11.13315000
1.86693893	95.23300000	11.10874000
1.87193893	95.23300000	11.10874000
1.87693893	95.23300000	11.08432000
1.88193893	95.23300000	10.99277000
1.88693893	95.23300000	11.46275000
1.89193893	95.23300000	12.48207000
1.89693893	95.29404000	12.45765000
1.90193893	95.52293000	11.34678000
1.90693893	94.40900000	11.34678000
1.91193893	92.08959000	12.45765000
1.91693893	90.97568000	12.48207000
1.92193893	91.20457000	11.46275000
1.92693893	91.26560000	10.96835000
1.93193893	91.26560000	10.96835000
1.93693893	91.26560000	11.43834000
1.94193893	91.26560000	12.36610000
1.94693893	91.26560000	12.83609000
1.95193893	91.26560000	12.83609000
1.95693893	91.26560000	12.36610000
1.96193893	91.26560000	11.43834000
1.96693893	91.26560000	10.99277000
1.97193893	91.26560000	11.08432000
1.97693893	91.26560000	11.10874000
1.98193893	91.26560000	11.10874000
1.98693893	91.32664000	11.10874000
1.99193893	91.55552000	11.10874000
1.99693893	90.44160000	11.10874000
2.00193893	88.12219000	11.10874000
2.00693893	87.00826000	11.08432000
2.01193893	87.23715000	10.99277000
2.01693893	87.29819000	11.46275000
2.02193893	87.29819000	12.48207000
2.02693893	87.29819000	12.45765000
2.03193893	87.29819000	11.34678000
2.03693893	87.29819000	11.34678000
2.04193893	87.29819000	12.45765000
2.04693893	87.35923000	12.43324000
2.05193893	87.58812000	11.23081000
2.05693893	86.41315000	11.67638000
2.06193893	83.86486000	13.71502000
2.06693893	83.86486000	14.20942000
2.07193893	86.41315000	13.19010000
2.07693893	87.64915000	12.25013000
2.08193893	87.64915000	11.41392000
2.08693893	86.47419000	10.99277000
2.09193893	84.15479000	11.08432000
2.09693893	83.04086000	11.08432000
2.10193893	83.26974000	10.99277000
2.10693893	83.26974000	11.43834000
2.11193893	83.04086000	12.36610000
2.11693893	84.21582000	12.81167000
2.12193893	86.76411000	12.72011000
2.12693893	86.76411000	12.69570000
2.13193893	84.21582000	12.69570000
2.13693893	83.04086000	12.72011000
2.14193893	83.26974000	12.81167000
2.14693893	83.33078000	12.34169000
2.15193893	83.33078000	11.32237000
2.15693893	83.33078000	11.29795000
2.16193893	83.33078000	12.22571000
2.16693893	83.33078000	13.16568000
2.17193893	83.33078000	14.09345000
2.17693893	83.33078000	14.06903000
2.18193893	83.33078000	13.04971000
2.18693893	83.39182000	12.57973000
2.19193893	83.62070000	12.67128000
2.19693893	82.50678000	12.69570000
2.20193892	80.18738000	12.69570000
2.20693892	79.07346000	12.69570000
2.21193892	79.30235000	12.69570000
2.21693892	79.36338000	12.69570000
2.22193892	79.36338000	12.69570000
2.22693892	79.36338000	12.67128000
2.23193892	79.36338000	12.57973000
2.23693892	79.36338000	13.02530000
2.24193892	79.36338000	13.95306000
2.24693892	79.36338000	14.42305000
2.25193892	79.36338000	14.42305000
2.25693892	79.36338000	13.92865000
2.26193892	79.36338000	12.90933000
2.26693892	79.36338000	12.90933000
2.27193892	79.36338000	13.92865000
2.27693892	79.36338000	14.42305000
2.28193892	79.36338000	14.42305000
2.28693892	79.36338000	13.92865000
2.29193892	79.36338000	12.90933000
2.29693892	79.42442000	12.90933000
2.30193892	79.65331000	13.92865000
2.30693892	78.53938000	14.42305000
2.31193892	76.21997000	14.42305000
2.31693892	75.04501000	13.92865000
2.32193892	75.04501000	12.90933000
2.32693892	76.28101000	12.93374000
2.33193892	78.82931000	14.04462000
2.33693892	78.82931000	14.06903000
2.34193892	76.28101000	13.04971000
2.34693892	75.10605000	12.57973000
2.35193892	75.33494000	12.67128000
2.35693892	75.39597000	12.69570000
2.36193892	75.39597000	12.69570000
2.36693892	75.39597000	12.72011000
2.37193892	75.39597000	12.81167000
2.37693892	75.39597000	12.36610000
2.38193892	75.39597000	11.43834000
2.38693892	75.39597000	10.99277000
2.39193892	75.39597000	11.08432000
2.39693892	75.39597000	11.10874000
2.40193892	75.39597000	11.10874000
2.40693892	75.39597000	11.08432000
2.41193892	75.39597000	10.99277000
2.41693892	75.45701000	11.43834000
2.42193892	75.68590000	12.36610000
2.42693892	74.57197000	12.83609000
2.43193892	72.25256000	12.83609000
2.43693892	71.13864000	12.34169000
2.44193892	71.36753000	11.32237000
2.44693892	71.42857000	11.34678000
2.45193892	71.42857000	12.45765000
2.45693892	71.42857000	12.43324000
2.46193892	71.42857000	11.23081000
2.46693892	71.42857000	11.67638000
2.47193892	71.42857000	13.71502000
2.47693892	71.42857000	14.18500000
2.48193892	71.42857000	13.07413000
2.48693892	71.42857000	12.57973000
2.49193892	71.42857000	12.67128000
2.49693892	71.42857000	12.69570000
2.50193892	71.42857000	12.69570000
2.50693892	71.42857000	12.67128000
2.51193892	71.42857000	12.57973000
2.51693892	71.42857000	13.02530000
2.52193892	71.42857000	13.95306000
2.52693892	71.42857000	14.39863000
2.53193892	71.42857000	14.30708000
2.53693892	71.42857000	14.28266000
2.54193892	71.42857000	14.28266000
2.54693892	71.48961000	14.25825000
2.55193892	71.71850000	14.16669000
2.55693892	70.54353000	14.63668000
2.56193892	67.97997000	15.65600000
2.56693892	67.97997000	15.65600000
2.57193892	70.54353000	14.63668000
2.57693892	71.71850000	14.16669000
2.58193892	71.48961000	14.25825000
2.58693892	71.48961000	14.28266000
2.59193892	71.71850000	14.28266000
2.59693892	70.60457000	14.28266000
2.60193892	68.26991000	14.28266000
2.60693892	67.15598000	14.28266000
2.61193892	67.38486000	14.28266000
2.61693892	67.44590000	14.28266000
2.62193892	67.44590000	14.28266000
2.62693892	67.44590000	14.30708000
2.63193892	67.44590000	14.39863000
2.63693892	67.44590000	13.95306000
2.64193892	67.44590000	13.02530000
2.64693892	67.44590000	12.57973000
2.65193892	67.44590000	12.67128000
2.65693892	67.44590000	12.72011000
2.66193892	67.44590000	12.81167000
2.66693892	67.44590000	12.36610000
2.67193892	67.44590000	11.43834000
2.67693892	67.44590000	10.96835000
2.68193892	67.44590000	10.96835000
2.68693892	67.50694000	11.43834000
2.69193892	67.73582000	12.36610000
2.69693892	66.62190000	12.81167000
2.70193892	64.30249000	12.72011000
2.70693892	63.18857000	12.69570000
2.71193892	63.41746000	12.69570000
2.71693892	63.47850000	12.67128000
2.72193892	63.47850000	12.57973000
2.72693892	63.47850000	13.02530000
2.73193892	63.47850000	13.95306000
2.73693892	63.47850000	14.39863000
2.74193892	63.47850000	14.30708000
2.74693892	63.47850000	14.25825000
2.75193892	63.47850000	14.16669000
2.75693892	63.47850000	14.63668000
2.76193892	63.47850000	15.65600000
2.76693892	63.47850000	15.65600000
2.77193892	63.47850000	14.63668000
2.77693892	63.47850000	14.16669000
2.78193892	63.47850000	14.25825000
2.78693892	63.47850000	14.30708000
2.79193892	63.47850000	14.39863000
2.79693892	63.47850000	13.92865000
2.80193892	63.47850000	12.90933000
2.80693892	63.47850000	12.90933000
2.81193892	63.47850000	13.92865000
2.81693892	63.47850000	14.39863000
2.82193892	63.47850000	14.30708000
2.82693892	63.47850000	14.28266000
2.83193892	63.47850000	14.28266000
2.83693892	63.47850000	14.28266000
2.84193892	63.47850000	14.28266000
2.84693892	63.47850000	14.30708000
2.85193892	63.47850000	14.39863000
2.85693892	63.53953000	13.95306000
2.86193892	63.76842000	13.02530000
2.86693892	62.65450000	12.57973000
2.87193892	60.33509000	12.67128000
2.87693892	59.22116000	12.69570000
2.88193892	59.45005000	12.69570000
2.88693892	59.51109000	12.69570000
2.89193892	59.51109000	12.69570000
2.89693892	59.51109000	12.69570000
2.90193892	59.51109000	12.69570000
2.90693892	59.51109000	12.69570000
2.91193892	59.51109000	12.69570000
2.91693892	59.51109000	12.69570000
2.92193892	59.51109000	12.69570000
2.92693892	59.51109000	12.69570000
2.93193892	59.51109000	12.69570000
2.93693892	59.57213000	12.67128000
2.94193892	59.80102000	12.57973000
2.94693892	58.62605000	13.07413000
2.95193892	56.07775000	14.18500000
2.95693892	56.07775000	13.69060000
2.96193892	58.62605000	11.56041000
2.96693892	59.80102000	11.56041000
2.97193892	59.57213000	13.69060000
2.97693892	59.51109000	14.16059000
2.98193892	59.51109000	12.95816000
2.98693892	59.51109000	12.93374000
2.99193892	59.51109000	14.04462000
2.99693892	59.57213000	14.06903000
3.00193892	59.80102000	13.04971000
3.00693892	58.62605000	12.57973000
3.01193892	56.07775000	12.67128000
3.01693892	56.13879000	12.69570000
3.02193892	58.91598000	12.69570000
3.02693892	58.97702000	12.69570000
3.03193892	56.42872000	12.69570000
3.03693892	55.25376000	12.69570000
3.04193892	55.48264000	12.69570000
3.04693892	55.54368000	12.69570000
3.05193892	55.54368000	12.69570000
3.05693892	55.54368000	12.67128000
3.06193892	55.54368000	12.57973000
3.06693892	55.54368000	13.02530000
3.07193892	55.54368000	13.95306000
3.07693892	55.54368000	14.37422000
3.08193892	55.54368000	14.19111000
3.08693892	55.54368000	14.63668000
3.09193892	55.54368000	15.65600000
3.09693892	55.54368000	15.65600000
3.10193892	55.54368000	14.63668000
3.10693892	55.54368000	14.16669000
3.11193892	55.54368000	14.25825000
3.11693892	55.54368000	14.28266000
3.12193892	55.54368000	14.28266000
3.12693892	55.54368000	14.28266000
3.13193892	55.54368000	14.28266000
3.13693892	55.54368000	14.30708000
3.14193892	55.54368000	14.39863000
3.14693892	55.54368000	13.92865000
3.15193892	55.54368000	12.90933000
3.15693892	55.60472000	12.90933000
3.16193892	55.83361000	13.92865000
3.16693892	54.65865000	14.42305000
3.17193892	52.11035000	14.42305000
3.17693892	52.11035000	13.95306000
3.18193892	54.65865000	13.02530000
3.18693892	55.89465000	12.57973000
3.19193892	55.89465000	12.67128000
3.19693892	54.71968000	12.69570000
3.20193892	52.40028000	12.69570000
3.20693892	51.28635000	12.69570000
3.21193892	51.51524000	12.69570000
3.21693892	51.57627000	12.72011000
3.22193892	51.57627000	12.81167000
3.22693892	51.57627000	12.36610000
3.23193892	51.57627000	11.43834000
3.23693892	51.57627000	10.99277000
3.24193892	51.57627000	11.08432000
3.24693892	51.57627000	11.08432000
3.25193892	51.57627000	10.99277000
3.25693892	51.57627000	11.46275000
3.26193892	51.57627000	12.48207000
3.26693892	51.57627000	12.45765000
3.27193892	51.57627000	11.34678000
3.27693892	51.57627000	11.34678000
3.28193892	51.57627000	12.45765000
3.28693892	51.57627000	12.48207000
3.29193892	51.57627000	11.46275000
3.29693892	51.57627000	10.96835000
3.30193892	51.57627000	10.96835000
3.30693892	51.57627000	11.46275000
3.31193892	51.57627000	12.48207000
3.31693892	51.57627000	12.45765000
3.32193892	51.57627000	11.34678000
3.32693892	51.57627000	11.34678000
3.33193892	51.57627000	12.45765000
3.33693892	51.57627000	12.45765000
3.34193892	51.57627000	11.34678000
3.34693892	51.57627000	11.29795000
3.35193892	51.57627000	12.22571000
3.35693892	51.63731000	13.16568000
3.36193892	51.86620000	14.09345000
3.36693892	50.75228000	14.04462000
3.37193892	48.43287000	12.93374000
3.37693892	47.31895000	12.90933000
3.38193892	47.54784000	13.92865000
3.38693892	47.60887000	14.39863000
3.39193892	47.60887000	14.30708000
3.39693892	47.60887000	14.28266000
3.40193892	47.60887000	14.28266000
3.40693892	47.60887000	14.30708000
3.41193892	47.60887000	14.39863000
3.41693892	47.60887000	13.95306000
3.42193892	47.60887000	13.02530000
3.42693892	47.60887000	12.57973000
3.43193892	47.60887000	12.67128000
3.43693892	47.60887000	12.69570000
3.44193892	47.60887000	12.69570000
3.44693892	47.60887000	12.69570000
3.45193892	47.60887000	12.69570000
3.45693892	47.60887000	12.72011000
3.46193892	47.60887000	12.81167000
3.46693892	47.60887000	12.36610000
3.47193892	47.60887000	11.43834000
3.47693892	47.60887000	10.96835000
3.48193892	47.60887000	10.96835000
3.48693892	47.60887000	11.43834000
3.49193892	47.60887000	12.36610000
3.49693892	47.60887000	12.81167000
3.50193892	47.60887000	12.72011000
3.50693892	47.60887000	12.72011000
3.51193892	47.60887000	12.81167000
3.51693892	47.60887000	12.34169000
3.52193892	47.60887000	11.32237000
3.52693892	47.60887000	11.29795000
3.53193892	47.60887000	12.22571000
3.53693892	47.66991000	13.16568000
3.54193892	47.89880000	14.09345000
3.54693892	46.78487000	14.06903000
3.55193892	44.46547000	13.04971000
3.55693892	43.29050000	12.57973000
3.56193892	43.29050000	12.67128000
3.56693892	44.46547000	12.69570000
3.57193892	46.78487000	12.69570000
3.57693892	47.89880000	12.69570000
3.58193892	47.66991000	12.69570000
3.58693892	47.60887000	12.67128000
3.59193892	47.60887000	12.57973000
3.59693892	47.66991000	13.04971000
3.60193892	47.89880000	14.06903000
3.60693892	46.78487000	14.06903000
3.61193892	44.46547000	13.04971000
3.61693892	43.35154000	12.55531000
3.62193892	43.58043000	12.55531000
3.62693892	43.64147000	13.02530000
3.63193892	43.64147000	13.95306000
3.63693892	43.64147000	14.39863000
3.64193892	43.64147000	14.30708000
3.64693892	43.64147000	14.28266000
3.65193892	43.64147000	14.28266000
3.65693892	43.64147000	14.30708000
3.66193892	43.64147000	14.39863000
3.66693892	43.64147000	13.92865000
3.67193892	43.64147000	12.90933000
3.67693892	43.64147000	12.93374000
3.68193892	43.64147000	14.04462000
3.68693892	43.64147000	14.06903000
3.69193892	43.64147000	13.04971000
3.69693892	43.64147000	12.57973000
3.70193892	43.64147000	12.67128000
3.70693892	43.64147000	12.67128000
3.71193892	43.64147000	12.57973000
3.71693892	43.64147000	13.04971000
3.72193892	43.64147000	14.06903000
3.72693892	43.70250000	14.06903000
3.73193892	43.93139000	13.04971000
3.73693892	42.81747000	12.55531000
3.74193892	40.49806000	12.55531000
3.74693892	39.32310000	13.02530000
3.75193892	39.32310000	13.95306000
3.75693892	40.49806000	14.39863000
3.76193892	42.81747000	14.30708000
3.76693892	43.93139000	14.28266000
3.77193892	43.70250000	14.28266000
3.77693892	43.70250000	14.30708000
3.78193892	43.93139000	14.39863000
3.78693892	42.81747000	13.95306000
3.79193892	40.49806000	13.02530000
3.79693892	39.38414000	12.55531000
3.80193892	39.61302000	12.55531000
3.80693892	39.67406000	13.02530000
3.81193892	39.67406000	13.95306000
3.81693892	39.61302000	14.39863000
3.82193892	39.38414000	14.30708000
3.82693892	40.55910000	14.33149000
3.83193892	43.10739000	14.51460000
3.83693892	43.10739000	13.59905000
3.84193892	40.55910000	11.65197000
3.84693891	39.32310000	11.20640000
3.85193891	39.32310000	12.31727000
3.85693891	40.55910000	12.81167000
3.86193891	43.10739000	12.72011000
3.86693891	43.10739000	12.69570000
3.87193891	40.55910000	12.69570000
3.87693891	39.38414000	12.69570000
3.88193891	39.61302000	12.69570000
3.88693891	39.67406000	12.69570000
3.89193891	39.67406000	12.69570000
3.89693891	39.67406000	12.69570000
3.90193891	39.67406000	12.69570000
3.90693891	39.67406000	12.69570000
3.91193891	39.67406000	12.69570000
3.91693891	39.67406000	12.67128000
3.92193891	39.67406000	12.57973000
3.92693891	39.67406000	13.02530000
3.93193891	39.67406000	13.95306000
3.93693891	39.67406000	14.39863000
3.94193891	39.67406000	14.30708000
3.94693891	39.67406000	14.28266000
3.95193891	39.67406000	14.28266000
3.95693891	39.73510000	14.25825000
3.96193891	39.96399000	14.16669000
3.96693891	38.78902000	14.66109000
3.97193891	36.24073000	15.77197000
3.97693891	36.24073000	15.30198000
3.98193891	38.78902000	13.26334000
3.98693891	39.96399000	12.79336000
3.99193891	39.73510000	13.90423000
3.99693891	39.67406000	14.42305000
4.00193891	39.67406000	14.42305000
4.00693891	39.67406000	13.95306000
4.01193891	39.67406000	13.02530000
4.01693891	39.73510000	12.57973000
4.02193891	39.96399000	12.67128000
4.02693891	38.78902000	12.72011000
4.03193891	36.24073000	12.81167000
4.03693891	36.30176000	12.34169000
4.04193891	39.07895000	11.32237000
4.04693891	39.13999000	11.32237000
4.05193891	36.59169000	12.34169000
4.05693891	35.41673000	12.83609000
4.06193891	35.64562000	12.83609000
4.06693891	35.70665000	12.34169000
4.07193891	35.70665000	11.32237000
4.07693891	35.70665000	11.34678000
4.08193891	35.70665000	12.45765000
4.08693891	35.64562000	12.48207000
4.09193891	35.41673000	11.46275000
4.09693891	36.59169000	10.99277000
4.10193891	39.13999000	11.08432000
4.10693891	39.13999000	11.10874000
4.11193891	36.59169000	11.10874000
4.11693891	35.41673000	11.08432000
4.12193891	35.64562000	10.99277000
4.12693891	35.70665000	11.43834000
4.13193891	35.70665000	12.36610000
4.13693891	35.70665000	12.81167000
4.14193891	35.70665000	12.72011000
4.14693891	35.70665000	12.69570000
4.15193891	35.70665000	12.69570000
4.15693891	35.70665000	12.67128000
4.16193891	35.70665000	12.57973000
4.16693891	35.70665000	13.02530000
4.17193891	35.70665000	13.95306000
4.17693891	35.70665000	14.39863000
4.18193891	35.70665000	14.30708000
4.18693891	35.70665000	14.28266000
4.19193891	35.70665000	14.28266000
4.19693891	35.70665000	14.28266000
4.20193891	35.70665000	14.28266000
4.20693891	35.70665000	14.30708000
4.21193891	35.70665000	14.39863000
4.21693891	35.70665000	13.97748000
4.22193891	35.70665000	13.14127000
4.22693891	35.70665000	12.20130000
4.23193891	35.70665000	11.18198000
4.23693891	35.70665000	11.65197000
4.24193891	35.70665000	13.59905000
4.24693891	35.70665000	14.53902000
4.25193891	35.70665000	14.44746000
4.25693891	35.70665000	13.95306000
4.26193891	35.70665000	13.02530000
4.26693891	35.70665000	12.55531000
4.27193891	35.70665000	12.55531000
4.27693891	35.70665000	13.04971000
4.28193891	35.70665000	14.06903000
4.28693891	35.70665000	14.04462000
4.29193891	35.70665000	12.93374000
4.29693891	35.70665000	12.88491000
4.30193891	35.70665000	13.81268000
4.30693891	35.70665000	14.77706000
4.31193891	35.70665000	15.79638000
4.31693891	35.70665000	15.32640000
4.32193891	35.70665000	13.37931000
4.32693891	35.70665000	12.46376000
4.33193891	35.70665000	12.64687000
4.33693891	35.70665000	12.69570000
4.34193891	35.70665000	12.69570000
4.34693891	35.70665000	12.69570000
4.35193891	35.70665000	12.69570000
4.35693891	35.70665000	12.72011000
4.36193891	35.70665000	12.81167000
4.36693891	35.76769000	12.36610000
4.37193891	35.99658000	11.43834000
4.37693891	34.82162000	10.99277000
4.38193891	32.27332000	11.08432000
4.38693891	32.27332000	11.10874000
4.39193891	34.82162000	11.10874000
4.39693891	35.99658000	11.08432000
4.40193891	35.76769000	10.99277000
4.40693891	35.70665000	11.46275000
4.41193891	35.70665000	12.48207000
4.41693891	35.70665000	12.45765000
4.42193891	35.70665000	11.34678000
4.42693891	35.70665000	11.32237000
4.43193891	35.70665000	12.34169000
4.43693891	35.76769000	12.81167000
4.44193891	35.99658000	12.72011000
4.44693891	34.82162000	12.69570000
4.45193891	32.27332000	12.69570000
4.45693891	32.27332000	12.67128000
4.46193891	34.82162000	12.57973000
4.46693891	36.05762000	13.02530000
4.47193891	36.05762000	13.95306000
4.47693891	34.88266000	14.39863000
4.48193891	32.56325000	14.30708000
4.48693891	31.44932000	14.28266000
4.49193891	31.67821000	14.28266000
4.49693891	31.73925000	14.25825000
4.50193891	31.73925000	14.16669000
4.50693891	31.73925000	14.63668000
4.51193891	31.73925000	15.65600000
4.51693891	31.73925000	15.63158000
4.52193891	31.73925000	14.52071000
4.52693891	31.73925000	14.52071000
4.53193891	31.73925000	15.63158000
4.53693891	31.73925000	15.65600000
4.54193891	31.73925000	14.63668000
4.54693891	31.73925000	14.16669000
4.55193891	31.73925000	14.25825000
4.55693891	31.73925000	14.25825000
4.56193891	31.73925000	14.16669000
4.56693891	31.73925000	14.63668000
4.57193891	31.73925000	15.65600000
4.57693891	31.73925000	15.63158000
4.58193891	31.73925000	14.52071000
4.58693891	31.73925000	14.49629000
4.59193891	31.73925000	15.51561000
4.59693891	31.73925000	16.01001000
4.60193891	31.73925000	16.01001000
4.60693891	31.73925000	15.54002000
4.61193891	31.73925000	14.61226000
4.61693891	31.73925000	14.16669000
4.62193891	31.73925000	14.25825000
4.62693891	31.73925000	14.28266000
4.63193891	31.73925000	14.28266000
4.63693891	31.73925000	14.28266000
4.64193891	31.73925000	14.28266000
4.64693891	31.73925000	14.28266000
4.65193891	31.73925000	14.28266000
4.65693891	31.73925000	14.30708000
4.66193891	31.73925000	14.39863000
4.66693891	31.73925000	13.92865000
4.67193891	31.73925000	12.90933000
4.67693891	31.73925000	12.93374000
4.68193891	31.73925000	14.04462000
4.68693891	31.73925000	14.06903000
4.69193891	31.73925000	13.04971000
4.69693891	31.73925000	12.57973000
4.70193891	31.73925000	12.67128000
4.70693891	31.73925000	12.67128000
4.71193891	31.73925000	12.57973000
4.71693891	31.73925000	13.02530000
4.72193891	31.73925000	13.95306000
4.72693891	31.73925000	14.39863000
4.73193891	31.73925000	14.30708000
4.73693891	31.73925000	14.28266000
4.74193891	31.73925000	14.28266000
4.74693891	31.73925000	14.25825000
4.75193891	31.73925000	14.16669000
4.75693891	31.73925000	14.63668000
4.76193891	31.73925000	15.65600000
4.76693891	31.73925000	15.65600000
4.77193891	31.73925000	14.63668000
4.77693891	31.73925000	14.16669000
4.78193891	31.73925000	14.25825000
4.78693891	31.73925000	14.28266000
4.79193891	31.73925000	14.28266000
4.79693891	31.73925000	14.28266000
4.80193891	31.73925000	14.28266000
4.80693891	31.73925000	14.28266000
4.81193891	31.73925000	14.28266000
4.81693891	31.80028000	14.28266000
4.82193891	32.02917000	14.28266000
4.82693891	30.85421000	14.28266000
4.83193891	28.30592000	14.28266000
4.83693891	28.36695000	14.28266000
4.84193891	31.14414000	14.28266000
4.84693891	31.14414000	14.30708000
4.85193891	28.36695000	14.39863000
4.85693891	28.30592000	13.95306000
4.86193891	30.85421000	13.02530000
4.86693891	32.09021000	12.57973000
4.87193891	32.09021000	12.67128000
4.87693891	30.85421000	12.72011000
4.88193891	28.30592000	12.81167000
4.88693891	28.36695000	12.34169000
4.89193891	31.14414000	11.32237000
4.89693891	31.14414000	11.32237000
4.90193891	28.36695000	12.34169000
4.90693891	28.36695000	12.81167000
4.91193891	31.14414000	12.72011000
4.91693891	31.20517000	12.69570000
4.92193891	28.65688000	12.69570000
4.92693891	27.42088000	12.69570000
4.93193891	27.42088000	12.69570000
4.93693891	28.65688000	12.67128000
4.94193891	31.20517000	12.57973000
4.94693891	31.20517000	13.04971000
4.95193891	28.65688000	14.06903000
4.95693891	27.48192000	14.04462000
4.96193891	27.71080000	12.93374000
4.96693891	27.77184000	12.90933000
4.97193891	27.77184000	13.92865000
4.97693891	27.77184000	14.42305000
4.98193891	27.77184000	14.42305000
4.98693891	27.77184000	13.95306000
4.99193891	27.77184000	13.02530000
4.99693891	27.77184000	12.55531000
5.00193891	27.77184000	12.55531000
5.00693891	27.77184000	13.04971000
5.01193891	27.77184000	14.06903000
5.01693891	27.77184000	14.04462000
5.02193891	27.77184000	12.93374000
5.02693891	27.77184000	12.90933000
5.03193891	27.77184000	13.92865000
5.03693891	27.77184000	14.39863000
5.04193891	27.77184000	14.30708000
5.04693891	27.77184000	14.28266000
5.05193891	27.77184000	14.28266000
5.05693891	27.77184000	14.28266000
5.06193891	27.77184000	14.28266000
5.06693891	27.77184000	14.25825000
5.07193891	27.77184000	14.16669000
5.07693891	27.77184000	14.63668000
5.08193891	27.77184000	15.65600000
5.08693891	27.77184000	15.65600000
5.09193891	27.77184000	14.63668000
5.09693891	27.77184000	14.16669000
5.10193891	27.77184000	14.25825000
5.10693891	27.77184000	14.28266000
5.11193891	27.77184000	14.28266000
5.11693891	27.77184000	14.30708000
5.12193891	27.77184000	14.39863000
5.12693891	27.77184000	13.92865000
5.13193891	27.77184000	12.90933000
5.13693891	27.77184000	12.93374000
5.14193891	27.77184000	14.04462000
5.14693891	27.77184000	14.04462000
5.15193891	27.77184000	12.93374000
5.15693891	27.77184000	12.93374000
5.16193891	27.77184000	14.04462000
5.16693891	27.77184000	14.04462000
5.17193891	27.77184000	12.93374000
5.17693891	27.77184000	12.93374000
5.18193891	27.77184000	14.04462000
5.18693891	27.77184000	14.04462000
5.19193891	27.77184000	12.93374000
5.19693891	27.77184000	12.90933000
5.20193891	27.77184000	13.92865000
5.20693891	27.77184000	14.39863000
5.21193891	27.77184000	14.30708000
5.21693891	27.77184000	14.30708000
5.22193891	27.77184000	14.39863000
5.22693891	27.77184000	13.92865000
5.23193891	27.77184000	12.90933000
5.23693891	27.77184000	12.90933000
5.24193891	27.77184000	13.92865000
5.24693891	27.77184000	14.42305000
5.25193891	27.77184000	14.42305000
5.25693891	27.77184000	13.95306000
5.26193891	27.77184000	13.02530000
5.26693891	27.77184000	12.57973000
5.27193891	27.77184000	12.67128000
5.27693891	27.77184000	12.69570000
5.28193891	27.77184000	12.69570000
5.28693891	27.77184000	12.69570000
5.29193891	27.77184000	12.69570000
5.29693891	27.83288000	12.69570000
5.30193891	28.06177000	12.69570000
5.30693891	26.94784000	12.69570000
5.31193891	24.62844000	12.69570000
5.31693891	23.45347000	12.69570000
5.32193891	23.45347000	12.69570000
5.32693891	24.62844000	12.69570000
5.33193891	26.94784000	12.69570000
5.33693891	28.06177000	12.69570000
5.34193891	27.83288000	12.69570000
5.34693891	27.83288000	12.69570000
5.35193891	28.06177000	12.69570000
5.35693891	26.94784000	12.67128000
5.36193891	24.62844000	12.57973000
5.36693891	23.51451000	13.02530000
5.37193891	23.74340000	13.95306000
5.37693891	23.80444000	14.39863000
5.38193891	23.80444000	14.30708000
5.38693891	23.80444000	14.28266000
5.39193891	23.80444000	14.28266000
5.39693891	23.74340000	14.28266000
5.40193891	23.51451000	14.28266000
5.40693891	24.68947000	14.28266000
5.41193891	27.23777000	14.28266000
5.41693891	27.23777000	14.30708000
5.42193891	24.68947000	14.39863000
5.42693891	23.51451000	13.95306000
5.43193891	23.74340000	13.02530000
5.43693891	23.80444000	12.55531000
5.44193891	23.80444000	12.55531000
5.44693891	23.74340000	13.04971000
5.45193891	23.51451000	14.06903000
5.45693891	24.68947000	14.06903000
5.46193891	27.23777000	13.04971000
5.46693891	27.17673000	12.57973000
5.47193891	24.39955000	12.67128000
5.47693891	24.39955000	12.69570000
5.48193891	27.17673000	12.69570000
5.48693891	27.23777000	12.67128000
5.49193890	24.68947000	12.57973000
5.49693890	23.51451000	13.02530000
5.50193890	23.74340000	13.95306000
5.50693890	23.80444000	14.39863000
5.51193890	23.80444000	14.30708000
5.51693890	23.80444000	14.28266000
5.52193890	23.80444000	14.28266000
5.52693890	23.80444000	14.28266000
5.53193890	23.80444000	14.28266000
5.53693890	23.80444000	14.28266000
5.54193890	23.80444000	14.28266000
5.54693890	23.80444000	14.30708000
5.55193890	23.80444000	14.39863000
5.55693890	23.80444000	13.92865000
5.56193890	23.80444000	12.90933000
5.56693890	23.80444000	12.93374000
5.57193890	23.80444000	14.04462000
5.57693890	23.80444000	14.04462000
5.58193890	23.80444000	12.93374000
5.58693890	23.80444000	12.93374000
5.59193890	23.80444000	14.04462000
5.59693890	23.80444000	14.04462000
5.60193890	23.80444000	12.93374000
5.60693890	23.80444000	12.90933000
5.61193890	23.80444000	13.92865000
5.61693890	23.80444000	14.37422000
5.62193890	23.80444000	14.19111000
5.62693890	23.80444000	14.63668000
5.63193890	23.80444000	15.65600000
5.63693890	23.80444000	15.63158000
5.64193890	23.80444000	14.52071000
5.64693890	23.80444000	14.52071000
5.65193890	23.80444000	15.63158000
5.65693890	23.80444000	15.65600000
5.66193890	23.80444000	14.63668000
5.66693890	23.80444000	14.14228000
5.67193890	23.80444000	14.14228000
5.67693890	23.80444000	14.63668000
5.68193890	23.80444000	15.65600000
5.68693890	23.80444000	15.65600000
5.69193890	23.80444000	14.63668000
5.69693890	23.80444000	14.16669000
5.70193890	23.80444000	14.25825000
5.70693890	23.80444000	14.28266000
5.71193890	23.80444000	14.28266000
5.71693890	23.80444000	14.28266000
5.72193890	23.80444000	14.28266000
5.72693890	23.80444000	14.28266000
5.73193890	23.80444000	14.28266000
5.73693890	23.80444000	14.28266000
5.74193890	23.80444000	14.28266000
5.74693890	23.80444000	14.28266000
5.75193890	23.80444000	14.28266000
5.75693890	23.80444000	14.28266000
5.76193890	23.80444000	14.28266000
5.76693890	23.80444000	14.28266000
5.77193890	23.80444000	14.28266000
5.77693890	23.80444000	14.25825000
5.78193890	23.80444000	14.16669000
5.78693890	23.80444000	14.61226000
5.79193890	23.80444000	15.54002000
5.79693890	23.80444000	15.98559000
5.80193890	23.80444000	15.89404000
5.80693890	23.80444000	15.86962000
5.81193890	23.80444000	15.86962000
5.81693890	23.80444000	15.89404000
5.82193890	23.80444000	15.98559000
5.82693890	23.80444000	15.54002000
5.83193890	23.80444000	14.61226000
5.83693890	23.80444000	14.16669000
5.84193890	23.80444000	14.25825000
5.84693890	23.80444000	14.28266000
5.85193890	23.80444000	14.28266000
5.85693890	23.80444000	14.28266000
5.86193890	23.80444000	14.28266000
5.86693890	23.80444000	14.28266000
5.87193890	23.80444000	14.28266000
5.87693890	23.80444000	14.28266000
5.88193890	23.80444000	14.28266000
5.88693890	23.80444000	14.28266000
5.89193890	23.80444000	14.28266000
5.89693890	23.80444000	14.30708000
5.90193890	23.80444000	14.39863000
5.90693890	23.80444000	13.90423000
5.91193890	23.80444000	12.79336000
5.91693890	23.80444000	13.26334000
5.92193890	23.80444000	15.30198000
5.92693890	23.80444000	15.77197000
5.93193890	23.80444000	14.66109000
5.93693890	23.80444000	14.16669000
5.94193890	23.80444000	14.25825000
5.94693890	23.80444000	14.25825000
5.95193890	23.80444000	14.16669000
5.95693890	23.80444000	14.63668000
5.96193890	23.80444000	15.65600000
5.96693890	23.80444000	15.65600000
5.97193890	23.80444000	14.63668000
5.97693890	23.80444000	14.16669000
5.98193890	23.80444000	14.25825000
5.98693890	23.86547000	14.28266000
5.99193890	24.09436000	14.28266000
5.99693890	22.91940000	14.28266000
6.00193890	20.37111000	14.28266000
6.00693890	20.37111000	14.28266000
6.01193890	22.91940000	14.28266000
6.01693890	24.15540000	14.25825000
6.02193890	24.15540000	14.16669000
6.02693890	22.91940000	14.56343000
6.03193890	20.37111000	15.30808000
6.03693890	20.37111000	16.55324000
6.04193890	22.91940000	17.93878000
6.04693890	24.09436000	20.47792000
6.05193890	23.86547000	23.52977000
6.05693890	23.86547000	27.36900000
6.06193890	24.09436000	31.07395000
6.06693890	22.91940000	35.73717000
6.07193890	20.37111000	40.16846000
6.07693890	20.37111000	45.70452000
6.08193890	22.91940000	50.97202000
6.08693890	24.09436000	56.92923000
6.09193890	23.86547000	62.11127000
6.09693890	23.80444000	68.06849000
6.10193890	23.80444000	73.33598000
6.10693890	23.86547000	78.84762000
6.11193890	24.09436000	83.19345000
6.11693890	22.91940000	88.25953000
6.12193890	20.37111000	92.69081000
6.12693890	20.37111000	97.84845000
6.13193890	22.91940000	102.56660000
6.13693890	24.15540000	106.38140000
6.14193890	24.15540000	108.31630000
6.14693890	22.91940000	110.78830000
6.15193890	20.37111000	113.01610000
6.15693890	20.37111000	115.60410000
6.16193890	22.91940000	118.00900000
6.16693890	24.15540000	119.73020000
6.17193890	24.15540000	120.37720000
6.17693890	22.91940000	120.74950000
6.18193890	20.37111000	120.65800000
6.18693890	20.43214000	120.65800000
6.19193890	23.20932000	120.74950000
6.19693890	23.27036000	120.35280000
6.20193890	20.72207000	119.60810000
6.20693890	19.48607000	118.31420000
6.21193890	19.48607000	116.74550000
6.21693890	20.66103000	115.02430000
6.22193890	22.98043000	113.54110000
6.22693890	24.09436000	111.86860000
6.23193890	23.86547000	110.48310000
6.23693890	23.86547000	108.36510000
6.24193890	24.09436000	106.05180000
6.24693890	22.91940000	103.48830000
6.25193890	20.37111000	101.26650000
6.25693890	20.37111000	98.72738000
6.26193890	22.91940000	96.50563000
6.26693890	24.15540000	93.96648000
6.27193890	24.15540000	91.74474000
6.27693890	22.98043000	89.15677000
6.28193890	20.66103000	86.75191000
6.28693890	19.54710000	85.12833000
6.29193890	19.77599000	84.84756000
6.29693890	19.83703000	82.72958000
6.30193890	19.83703000	79.30540000
6.30693890	19.77599000	76.71742000
6.31193890	19.54710000	75.51500000
6.31693890	20.72207000	73.42143000
6.32193890	23.27036000	71.01657000
6.32693890	23.27036000	68.89858000
6.33193890	20.72207000	67.60461000
6.33693890	19.54710000	65.43779000
6.34193890	19.77599000	62.84982000
6.34693890	19.83703000	61.59856000
6.35193890	19.83703000	62.06854000
6.35693890	19.83703000	61.29337000
6.36193890	19.83703000	59.62706000
6.36693890	19.83703000	57.88140000
6.37193890	19.83703000	56.39820000
6.37693890	19.83703000	54.65255000
6.38193890	19.83703000	52.98624000
6.38693890	19.83703000	52.18665000
6.39193890	19.83703000	52.56508000
6.39693890	19.83703000	51.71666000
6.40193890	19.83703000	49.86114000
6.40693890	19.83703000	49.01273000
6.41193890	19.83703000	49.39116000
6.41693890	19.83703000	48.54274000
6.42193890	19.83703000	46.68722000
6.42693890	19.83703000	45.83880000
6.43193890	19.83703000	46.21723000
6.43693890	19.83703000	45.39323000
6.44193890	19.83703000	43.62926000
6.44693890	19.83703000	42.29255000
6.45193890	19.83703000	41.54790000
6.45693890	19.83703000	41.17557000
6.46193890	19.83703000	41.35868000
6.46693890	19.83703000	40.93753000
6.47193890	19.83703000	40.00977000
6.47693890	19.83703000	39.58861000
6.48193890	19.83703000	39.77172000
6.48693890	19.83703000	39.37498000
6.49193890	19.83703000	38.53877000
6.49693890	19.83703000	37.64763000
6.50193890	19.83703000	36.81142000
6.50693890	19.83703000	36.43910000
6.51193890	19.83703000	36.71376000
6.51693890	19.83703000	35.82262000
6.52193890	19.83703000	33.87555000
6.52693890	19.83703000	33.42997000
6.53193890	19.83703000	34.54085000
6.53693890	19.83703000	35.05966000
6.54193890	19.83703000	35.05966000
6.54693890	19.83703000	34.58968000
6.55193890	19.83703000	33.66191000
6.55693890	19.83703000	33.21634000
6.56193890	19.83703000	33.30790000
6.56693890	19.83703000	33.33232000
6.57193890	19.83703000	33.33232000
6.57693890	19.83703000	33.35673000
6.58193890	19.83703000	33.44828000
6.58693890	19.83703000	33.00272000
6.59193890	19.83703000	32.07495000
6.59693890	19.83703000	31.65380000
6.60193890	19.83703000	31.83691000
6.60693890	19.83703000	31.41575000
6.61193890	19.83703000	30.48799000
6.61693890	19.83703000	30.04242000
6.62193890	19.83703000	30.13398000
6.62693890	19.83703000	30.15839000
6.63193890	19.83703000	30.15839000
6.63693890	19.83703000	30.18280000
6.64193890	19.83703000	30.27436000
6.64693890	19.83703000	29.82879000
6.65193890	19.83703000	28.90103000
6.65693890	19.83703000	28.45546000
6.66193890	19.83703000	28.54701000
6.66693890	19.83703000	28.57143000
6.67193890	19.83703000	28.57143000
6.67693890	19.83703000	28.62026000
6.68193890	19.83703000	28.80337000
6.68693890	19.83703000	27.91223000
6.69193890	19.83703000	26.05060000
6.69693890	19.83703000	25.13504000
6.70193890	19.83703000	25.22660000
6.70693890	19.83703000	25.74541000
6.71193890	19.83703000	26.76473000
6.71693890	19.83703000	26.74032000
6.72193890	19.83703000	25.62944000
6.72693890	19.83703000	25.62944000
6.73193890	19.83703000	26.74032000
6.73693890	19.83703000	26.76473000
6.74193890	19.83703000	25.74541000
6.74693890	19.83703000	25.29984000
6.75193890	19.83703000	25.48295000
6.75693890	19.83703000	25.06180000
6.76193890	19.83703000	24.13404000
6.76693890	19.83703000	23.68847000
6.77193890	19.83703000	23.78002000
6.77693890	19.83703000	23.80444000
6.78193890	19.83703000	23.80444000
6.78693890	19.83703000	23.78002000
6.79193890	19.83703000	23.68847000
6.79693890	19.83703000	24.15845000
6.80193890	19.83703000	25.17777000
6.80693890	19.83703000	25.17777000
6.81193890	19.83703000	24.15845000
6.81693890	19.83703000	23.68847000
6.82193890	19.83703000	23.78002000
6.82693890	19.83703000	23.78002000
6.83193890	19.83703000	23.68847000
6.83693890	19.83703000	24.13404000
6.84193890	19.83703000	25.06180000
6.84693890	19.83703000	25.53178000
6.85193890	19.83703000	25.53178000
6.85693890	19.83703000	25.06180000
6.86193890	19.83703000	24.13404000
6.86693890	19.83703000	23.68847000
6.87193890	19.83703000	23.78002000
6.87693890	19.83703000	23.82885000
6.88193890	19.83703000	23.92041000
6.88693890	19.83703000	23.47484000
6.89193890	19.83703000	22.54707000
6.89693890	19.83703000	22.12592000
6.90193890	19.83703000	22.30903000
6.90693890	19.83703000	21.88787000
6.91193890	19.83703000	20.96011000
6.91693890	19.83703000	20.51454000
6.92193890	19.83703000	20.60610000
6.92693890	19.83703000	20.63051000
6.93193890	19.83703000	20.63051000
6.93693890	19.83703000	20.60610000
6.94193890	19.83703000	20.51454000
6.94693890	19.89807000	20.96011000
6.95193890	20.12696000	21.88787000
6.95693890	18.95199000	22.30903000
6.96193890	16.40370000	22.12592000
6.96693890	16.40370000	22.54707000
6.97193890	18.95199000	23.47484000
6.97693890	20.12696000	23.94482000
6.98193890	19.89807000	23.94482000
6.98693890	19.83703000	23.45042000
6.99193890	19.83703000	22.43110000
6.99693890	19.83703000	22.43110000
7.00193890	19.83703000	23.45042000
7.00693890	19.83703000	23.92041000
7.01193890	19.83703000	23.82885000
7.01693890	19.83703000	23.82885000
7.02193890	19.83703000	23.92041000
7.02693890	19.89807000	23.45042000
7.03193890	20.12696000	22.43110000
7.03693890	19.01303000	22.43110000
7.04193890	16.69362000	23.45042000
7.04693890	15.57970000	23.92041000
7.05193890	15.80859000	23.82885000
7.05693890	15.80859000	23.82885000
7.06193890	15.57970000	23.92041000
7.06693890	16.75466000	23.47484000
7.07193890	19.30296000	22.54707000
7.07693890	19.24192000	22.10150000
7.08193890	16.46474000	22.19306000
7.08693890	16.40370000	22.21748000
7.09193890	18.95199000	22.21748000
7.09693890	20.12696000	22.21748000
7.10193890	19.89807000	22.21748000
7.10693890	19.83703000	22.21748000
7.11193890	19.83703000	22.21748000
7.11693890	19.89807000	22.21748000
7.12193890	20.12696000	22.21748000
7.12693890	19.01303000	22.21748000
7.13193890	16.69362000	22.21748000
7.13693889	15.51866000	22.21748000
7.14193889	15.51866000	22.21748000
7.14693889	16.75466000	22.24189000
7.15193889	19.30296000	22.33344000
7.15693889	19.30296000	21.88787000
7.16193889	16.75466000	20.96011000
7.16693889	15.51866000	20.49013000
7.17193889	15.51866000	20.49013000
7.17693889	16.69362000	20.98453000
7.18193889	19.01303000	22.00385000
7.18693889	20.18799000	22.00385000
7.19193889	20.18799000	20.98453000
7.19693889	19.01303000	20.49013000
7.20193889	16.69362000	20.49013000
7.20693889	15.57970000	20.98453000
7.21193889	15.80859000	22.00385000
7.21693889	15.80859000	22.00385000
7.22193889	15.57970000	20.98453000
7.22693889	16.75466000	20.51454000
7.23193889	19.30296000	20.60610000
7.23693889	19.24192000	20.63051000
7.24193889	16.46474000	20.63051000
7.24693889	16.46474000	20.63051000
7.25193889	19.24192000	20.63051000
7.25693889	19.30296000	20.63051000
7.26193889	16.75466000	20.63051000
7.26693889	15.57970000	20.63051000
7.27193889	15.80859000	20.63051000
7.27693889	15.86962000	20.65493000
7.28193889	15.86962000	20.74648000
7.28693889	15.80859000	20.27650000
7.29193889	15.57970000	19.25718000
7.29693889	16.69362000	19.25718000
7.30193889	19.01303000	20.27650000
7.30693889	20.12696000	20.77090000
7.31193889	19.89807000	20.77090000
7.31693889	19.83703000	20.27650000
7.32193889	19.83703000	19.25718000
7.32693889	19.89807000	19.25718000
7.33193889	20.12696000	20.27650000
7.33693889	19.01303000	20.74648000
7.34193889	16.69362000	20.65493000
7.34693889	15.57970000	20.63051000
7.35193889	15.80859000	20.63051000
7.35693889	15.86962000	20.65493000
7.36193889	15.86962000	20.74648000
7.36693889	15.80859000	20.27650000
7.37193889	15.57970000	19.25718000
7.37693889	16.75466000	19.25718000
7.38193889	19.30296000	20.27650000
7.38693889	19.30296000	20.74648000
7.39193889	16.75466000	20.65493000
7.39693889	15.57970000	20.63051000
7.40193889	15.80859000	20.63051000
7.40693889	15.86962000	20.63051000
7.41193889	15.86962000	20.63051000
7.41693889	15.86962000	20.63051000
7.42193889	15.86962000	20.63051000
7.42693889	15.86962000	20.63051000
7.43193889	15.86962000	20.63051000
7.43693889	15.86962000	20.63051000
7.44193889	15.86962000	20.63051000
7.44693889	15.86962000	20.60610000
7.45193889	15.86962000	20.51454000
7.45693889	15.86962000	20.98453000
7.46193889	15.86962000	22.00385000
7.46693889	15.86962000	22.00385000
7.47193889	15.86962000	20.98453000
7.47693889	15.86962000	20.51454000
7.48193889	15.86962000	20.60610000
7.48693889	15.86962000	20.63051000
7.49193889	15.86962000	20.63051000
7.49693889	15.86962000	20.63051000
7.50193889	15.86962000	20.63051000
7.50693889	15.86962000	20.65493000
7.51193889	15.86962000	20.74648000
7.51693889	15.86962000	20.27650000
7.52193889	15.86962000	19.25718000
7.52693889	15.80859000	19.28160000
7.53193889	15.57970000	20.39247000
7.53693889	16.75466000	20.39247000
7.54193889	19.30296000	19.28160000
7.54693889	19.30296000	19.28160000
7.55193889	16.75466000	20.39247000
7.55693889	15.57970000	20.39247000
7.56193889	15.80859000	19.28160000
7.56693889	15.86962000	19.28160000
7.57193889	15.86962000	20.39247000
7.57693889	15.86962000	20.41688000
7.58193889	15.86962000	19.39757000
7.58693889	15.86962000	18.90317000
7.59193889	15.86962000	18.90317000
7.59693889	15.86962000	19.39757000
7.60193889	15.86962000	20.41688000
7.60693889	15.80859000	20.41688000
7.61193889	15.57970000	19.39757000
7.61693889	16.75466000	18.90317000
7.62193889	19.30296000	18.90317000
7.62693889	19.30296000	19.37315000
7.63193889	16.75466000	20.30091000
7.63693889	15.57970000	20.77090000
7.64193889	15.80859000	20.77090000
7.64693889	15.86962000	20.27650000
7.65193889	15.86962000	19.25718000
7.65693889	15.86962000	19.25718000
7.66193889	15.86962000	20.27650000
7.66693889	15.86962000	20.77090000
7.67193889	15.86962000	20.77090000
7.67693889	15.86962000	20.27650000
7.68193889	15.86962000	19.25718000
7.68693889	15.86962000	19.28160000
7.69193889	15.86962000	20.39247000
7.69693889	15.86962000	20.39247000
7.70193889	15.86962000	19.28160000
7.70693889	15.86962000	19.28160000
7.71193889	15.86962000	20.39247000
7.71693889	15.86962000	20.41688000
7.72193889	15.86962000	19.39757000
7.72693889	15.86962000	18.92758000
7.73193889	15.86962000	19.01913000
7.73693889	15.86962000	19.04355000
7.74193889	15.86962000	19.04355000
7.74693889	15.86962000	19.04355000
7.75193889	15.86962000	19.04355000
7.75693889	15.86962000	19.04355000
7.76193889	15.86962000	19.04355000
7.76693889	15.80859000	19.06796000
7.77193889	15.57970000	19.15952000
7.77693889	16.75466000	18.68954000
7.78193889	19.30296000	17.67022000
7.78693889	19.30296000	17.67022000
7.79193889	16.75466000	18.68954000
7.79693889	15.57970000	19.15952000
7.80193889	15.80859000	19.06796000
7.80693889	15.86962000	19.06796000
7.81193889	15.86962000	19.15952000
7.81693889	15.86962000	18.71395000
7.82193889	15.86962000	17.78619000
7.82693889	15.86962000	17.34062000
7.83193889	15.86962000	17.43217000
7.83693889	15.86962000	17.43217000
7.84193889	15.86962000	17.34062000
7.84693889	15.86962000	17.81060000
7.85193889	15.86962000	18.82992000
7.85693889	15.86962000	18.82992000
7.86193889	15.86962000	17.81060000
7.86693889	15.86962000	17.34062000
7.87193889	15.86962000	17.43217000
7.87693889	15.86962000	17.40776000
7.88193889	15.86962000	17.22465000
7.88693889	15.86962000	18.14020000
7.89193889	15.86962000	20.08728000
7.89693889	15.86962000	20.53285000
7.90193889	15.86962000	19.42198000
7.90693889	15.86962000	18.92758000
7.91193889	15.86962000	19.01913000
7.91693889	15.86962000	19.06796000
7.92193889	15.86962000	19.15952000
7.92693889	15.86962000	18.71395000
7.93193889	15.86962000	17.78619000
7.93693889	15.86962000	17.34062000
7.94193889	15.86962000	17.43217000
7.94693889	15.86962000	17.48100000
7.95193889	15.86962000	17.57256000
7.95693889	15.86962000	17.12699000
7.96193889	15.86962000	16.19922000
7.96693889	15.86962000	15.77807000
7.97193889	15.86962000	15.96118000
7.97693889	15.86962000	15.51561000
7.98193889	15.86962000	14.49629000
7.98693889	15.86962000	14.47188000
7.99193889	15.86962000	15.39964000
7.99693889	15.86962000	16.33961000
8.00193889	15.86962000	17.26737000
8.00693889	15.86962000	17.21854000
8.01193889	15.86962000	16.10767000
8.01693889	15.86962000	16.10767000
8.02193889	15.86962000	17.21854000
8.02693889	15.86962000	17.21854000
8.03193889	15.86962000	16.10767000
8.03693889	15.86962000	16.08325000
8.04193889	15.86962000	17.10257000
8.04693889	15.86962000	17.57256000
8.05193889	15.86962000	17.48100000
8.05693889	15.86962000	17.45659000
8.06193889	15.86962000	17.45659000
8.06693889	15.86962000	17.45659000
8.07193889	15.86962000	17.45659000
8.07693889	15.86962000	17.43217000
8.08193889	15.86962000	17.34062000
8.08693889	15.86962000	17.81060000
8.09193889	15.86962000	18.82992000
8.09693889	15.86962000	18.82992000
8.10193889	15.86962000	17.81060000
8.10693889	15.86962000	17.34062000
8.11193889	15.86962000	17.43217000
8.11693889	15.86962000	17.45659000
8.12193889	15.86962000	17.45659000
8.12693889	15.86962000	17.45659000
8.13193889	15.86962000	17.45659000
8.13693889	15.86962000	17.48100000
8.14193889	15.86962000	17.57256000
8.14693889	15.86962000	17.12699000
8.15193889	15.86962000	16.19922000
8.15693889	15.86962000	15.72924000
8.16193889	15.86962000	15.72924000
8.16693889	15.86962000	16.22364000
8.17193889	15.86962000	17.24296000
8.17693889	15.86962000	17.21854000
8.18193889	15.86962000	16.10767000
8.18693889	15.86962000	16.08325000
8.19193889	15.86962000	17.10257000
8.19693889	15.86962000	17.57256000
8.20193889	15.86962000	17.48100000
8.20693889	15.86962000	17.45659000
8.21193889	15.86962000	17.45659000
8.21693889	15.86962000	17.48100000
8.22193889	15.86962000	17.57256000
8.22693889	15.86962000	17.12699000
8.23193889	15.86962000	16.19922000
8.23693889	15.86962000	15.72924000
8.24193889	15.86962000	15.72924000
8.24693889	15.86962000	16.22364000
8.25193889	15.86962000	17.24296000
8.25693889	15.86962000	17.24296000
8.26193889	15.86962000	16.22364000
8.26693889	15.86962000	15.72924000
8.27193889	15.86962000	15.72924000
8.27693889	15.86962000	16.22364000
8.28193889	15.86962000	17.24296000
8.28693889	15.86962000	17.24296000
8.29193889	15.86962000	16.22364000
8.29693889	15.86962000	15.72924000
8.30193889	15.86962000	15.72924000
8.30693889	15.86962000	16.19922000
8.31193889	15.86962000	17.12699000
8.31693889	15.86962000	17.59697000
8.32193889	15.86962000	17.59697000
8.32693889	15.86962000	17.12699000
8.33193889	15.86962000	16.19922000
8.33693889	15.86962000	15.72924000
8.34193889	15.86962000	15.72924000
8.34693889	15.86962000	16.19922000
8.35193889	15.86962000	17.12699000
8.35693889	15.86962000	17.59697000
8.36193889	15.86962000	17.59697000
8.36693889	15.86962000	17.10257000
8.37193889	15.86962000	16.08325000
8.37693889	15.86962000	16.10767000
8.38193889	15.86962000	17.21854000
8.38693889	15.86962000	17.24296000
8.39193889	15.86962000	16.22364000
8.39693889	15.86962000	15.75365000
8.40193889	15.86962000	15.84521000
8.40693889	15.86962000	15.84521000
8.41193889	15.86962000	15.75365000
8.41693889	15.86962000	16.24805000
8.42193889	15.86962000	17.35893000
8.42693889	15.86962000	16.88894000
8.43193889	15.86962000	14.85031000
8.43693889	15.86962000	14.38032000
8.44193889	15.86962000	15.49119000
8.44693889	15.86962000	15.98559000
8.45193889	15.86962000	15.89404000
8.45693889	15.86962000	15.89404000
8.46193889	15.86962000	15.98559000
8.46693889	15.86962000	15.51561000
8.47193889	15.86962000	14.49629000
8.47693889	15.86962000	14.49629000
8.48193889	15.86962000	15.51561000
8.48693889	15.86962000	15.98559000
8.49193889	15.86962000	15.89404000
8.49693889	15.86962000	15.84521000
8.50193889	15.86962000	15.75365000
8.50693889	15.86962000	16.22364000
8.51193889	15.86962000	17.24296000
8.51693889	15.86962000	17.24296000
8.52193889	15.86962000	16.22364000
8.52693889	15.86962000	15.75365000
8.53193889	15.86962000	15.84521000
8.53693889	15.86962000	15.86962000
8.54193889	15.86962000	15.86962000
8.54693889	15.86962000	15.84521000
8.55193889	15.86962000	15.75365000
8.55693889	15.86962000	16.22364000
8.56193889	15.86962000	17.24296000
8.56693889	15.86962000	17.24296000
8.57193889	15.86962000	16.22364000
8.57693889	15.86962000	15.75365000
8.58193889	15.86962000	15.84521000
8.58693889	15.86962000	15.84521000
8.59193889	15.86962000	15.75365000
8.59693889	15.86962000	16.22364000
8.60193889	15.86962000	17.24296000
8.60693889	15.86962000	17.24296000
8.61193889	15.86962000	16.22364000
8.61693889	15.86962000	15.75365000
8.62193889	15.86962000	15.84521000
8.62693889	15.86962000	15.86962000
8.63193889	15.86962000	15.86962000
8.63693889	15.86962000	15.86962000
8.64193889	15.86962000	15.86962000
8.64693889	15.86962000	15.86962000
8.65193889	15.86962000	15.86962000
8.65693889	15.86962000	15.86962000
8.66193889	15.86962000	15.86962000
8.66693889	15.86962000	15.86962000
8.67193889	15.86962000	15.86962000
8.67693889	15.86962000	15.86962000
8.68193889	15.86962000	15.86962000
8.68693889	15.86962000	15.86962000
8.69193889	15.86962000	15.86962000
8.69693889	15.86962000	15.89404000
8.70193889	15.86962000	15.98559000
8.70693889	15.86962000	15.54002000
8.71193889	15.86962000	14.61226000
8.71693889	15.86962000	14.14228000
8.72193889	15.86962000	14.14228000
8.72693889	15.86962000	14.61226000
8.73193889	15.86962000	15.54002000
8.73693889	15.86962000	15.98559000
8.74193889	15.86962000	15.89404000
8.74693889	15.86962000	15.86962000
8.75193889	15.86962000	15.86962000
8.75693889	15.86962000	15.86962000
8.76193889	15.86962000	15.86962000
8.76693889	15.86962000	15.89404000
8.77193889	15.86962000	15.98559000
8.77693889	15.86962000	15.51561000
8.78193888	15.86962000	14.49629000
8.78693888	15.86962000	14.49629000
8.79193888	15.86962000	15.51561000
8.79693888	15.86962000	15.96118000
8.80193888	15.86962000	15.77807000
8.80693888	15.86962000	16.19922000
8.81193888	15.86962000	17.12699000
8.81693888	15.86962000	17.57256000
8.82193888	15.86962000	17.48100000
8.82693888	15.86962000	17.43217000
8.83193888	15.86962000	17.34062000
8.83693888	15.86962000	17.81060000
8.84193888	15.86962000	18.82992000
8.84693888	15.86962000	18.85434000
8.85193888	15.86962000	17.92657000
8.85693888	15.86962000	17.01102000
8.86193888	15.86962000	16.17481000
8.86693888	15.86962000	15.72924000
8.87193888	15.86962000	15.72924000
8.87693888	15.86962000	16.19922000
8.88193888	15.86962000	17.12699000
8.88693888	15.86962000	17.59697000
8.89193888	15.86962000	17.59697000
8.89693888	15.86962000	17.12699000
8.90193888	15.86962000	16.19922000
8.90693888	15.86962000	15.75365000
8.91193888	15.86962000	15.84521000
8.91693888	15.86962000	15.86962000
8.92193888	15.86962000	15.86962000
8.92693888	15.86962000	15.86962000
8.93193888	15.86962000	15.86962000
8.93693888	15.86962000	15.86962000
8.94193888	15.86962000	15.86962000
8.94693888	15.86962000	15.86962000
8.95193888	15.86962000	15.86962000
8.95693888	15.86962000	15.86962000
8.96193888	15.86962000	15.86962000
8.96693888	15.86962000	15.86962000
8.97193888	15.86962000	15.86962000
8.97693888	15.86962000	15.84521000
8.98193888	15.86962000	15.75365000
8.98693888	15.86962000	16.17481000
8.99193888	15.86962000	17.01102000
8.99693888	15.86962000	17.95099000
9.00193888	15.86962000	18.97031000
9.00693888	15.86962000	18.47591000
9.01193888	15.86962000	16.43727000
9.01693888	15.86962000	15.96728000
9.02193888	15.86962000	17.07816000
9.02693888	15.86962000	17.57256000
9.03193888	15.86962000	17.48100000
